ARQUIVO DE MEDIDA
Usuário: ivan
Amostra: Nenhuma
Comentário: Teste #12: idem à medida anterior, mas usando a segunda grade
Parâmetros: vmode 1 sen 27 acgain 0 tc 10 27.000000 4.300000
Magnitude (mV)	Comprimento de onda(nm)
9.900000	1000.000000
9.900000	1010.017069
9.700000	1020.039170
9.300000	1030.058304
8.866667	1040.074442
8.233333	1050.087555
7.633333	1060.097614
6.800000	1070.104589
6.000000	1080.108452
5.200000	1090.109174
4.500000	1100.106725
3.800000	1110.101076
3.200000	1120.092199
2.600000	1130.080064
2.100000	1140.064641
1.700000	1150.045904
1.466667	1160.023821
1.300000	1169.998364
1.100000	1179.969504
0.900000	1189.937212
0.700000	1199.967002
0.533333	1209.993256
0.300000	1220.015944
0.200000	1230.035037
0.100000	1240.050505
0.100000	1250.062319
0.266667	1260.070449
0.500000	1270.074865
0.500000	1280.075539
0.500000	1290.072441
0.300000	1300.065540
0.100000	1310.054809
0.200000	1320.040217
0.400000	1330.021735
0.733333	1339.999333
1.000000	1349.972983
0.933333	1359.942655
1.033333	1369.973440
0.800000	1380.000136
0.900000	1390.022711
1.100000	1400.041137
1.500000	1410.055382
1.800000	1420.065418
1.900000	1430.071214
1.800000	1440.072740
1.800000	1450.069968
1.966667	1460.062865
2.133333	1470.051404
2.600000	1480.035554
2.966667	1490.015285
3.300000	1499.990568
3.500000	1509.961372
3.400000	1519.992369
3.500000	1530.018770
3.800000	1540.040543
4.166667	1550.057658
4.700000	1560.070085
5.000000	1570.077794
5.300000	1580.080754
5.500000	1590.078935
5.700000	1600.072307
5.900000	1610.060840
6.100000	1620.044503
6.300000	1630.023267
6.700000	1639.997100
7.300000	1649.965974
7.700000	1659.994124
8.100000	1670.017188
8.400000	1680.035137
8.700000	1690.047938
8.900000	1700.055561
9.200000	1710.057977
9.566667	1720.055153
9.833333	1730.047060
10.200000	1740.033667
10.733333	1750.014942
11.100000	1759.990857
11.633333	1769.961379
12.000000	1779.990341
12.600000	1790.013779
12.900000	1800.031663
13.300000	1810.043961
13.700000	1820.050642
13.900000	1830.051676
14.100000	1840.047031
14.300000	1850.036677
14.366667	1860.020582
14.433333	1869.998715
14.500000	1879.971046
14.633333	1890.001005
14.733333	1900.025024
15.000000	1910.043073
15.200000	1920.055119
15.166667	1930.061130
15.100000	1940.061076
14.900000	1950.054926
14.800000	1960.042646
14.500000	1970.024208
14.200000	1979.999578
13.900000	1989.968725
13.700000	1999.994655
