ARQUIVO DE MEDIDA
Usuário: ivan
Amostra: Nenhuma
Comentário: Teste #13: idem à medida anterior, mas usando a segunda grade
Parâmetros: vmode 1 sen 27 acgain 0 tc 10 27.000000 4.300000
Magnitude (mV)	Comprimento de onda(nm)
10.200000	1000.000000
10.000000	1010.017069
9.700000	1020.039170
9.400000	1030.058304
8.900000	1040.074442
8.300000	1050.087555
7.600000	1060.097614
6.900000	1070.104589
6.100000	1080.108452
5.400000	1090.109174
4.700000	1100.106725
4.000000	1110.101076
3.266667	1120.092199
2.800000	1130.080064
2.333333	1140.064641
2.000000	1150.045904
1.600000	1160.023821
1.300000	1169.998364
1.100000	1179.969504
0.900000	1189.937212
0.700000	1199.967002
0.600000	1209.993256
0.500000	1220.015944
0.500000	1230.035037
0.433333	1240.050505
0.500000	1250.062319
0.400000	1260.070449
0.400000	1270.074865
0.400000	1280.075539
0.300000	1290.072441
0.300000	1300.065540
0.100000	1310.054809
0.200000	1320.040217
0.266667	1330.021735
0.300000	1339.999333
0.400000	1349.972983
0.600000	1359.942655
0.700000	1369.973440
0.733333	1380.000136
0.900000	1390.022711
1.100000	1400.041137
1.200000	1410.055382
1.300000	1420.065418
1.600000	1430.071214
1.800000	1440.072740
1.900000	1450.069968
2.000000	1460.062865
2.200000	1470.051404
2.500000	1480.035554
2.700000	1490.015285
2.900000	1499.990568
3.100000	1509.961372
3.333333	1519.992369
3.600000	1530.018770
3.800000	1540.040543
4.200000	1550.057658
4.500000	1560.070085
4.800000	1570.077794
5.200000	1580.080754
5.400000	1590.078935
5.700000	1600.072307
5.900000	1610.060840
6.100000	1620.044503
6.400000	1630.023267
6.600000	1639.997100
6.900000	1649.965974
7.100000	1659.994124
7.600000	1670.017188
7.900000	1680.035137
8.500000	1690.047938
8.900000	1700.055561
9.266667	1710.057977
9.700000	1720.055153
10.000000	1730.047060
10.233333	1740.033667
10.600000	1750.014942
11.000000	1759.990857
11.366667	1769.961379
11.633333	1779.990341
12.100000	1790.013779
12.466667	1800.031663
12.800000	1810.043961
13.200000	1820.050642
13.400000	1830.051676
13.866667	1840.047031
14.166667	1850.036677
14.400000	1860.020582
14.666667	1869.998715
14.800000	1879.971046
14.766667	1890.001005
14.666667	1900.025024
14.600000	1910.043073
14.700000	1920.055119
14.866667	1930.061130
14.900000	1940.061076
14.766667	1950.054926
14.466667	1960.042646
14.200000	1970.024208
13.966667	1979.999578
13.866667	1989.968725
13.633333	1999.994655
