ARQUIVO DE MEDIDA
Usuário: 
Amostra: 
Comentário: Espectro de uma lâmpada halógena, colocada como fonte de radiação na entrada do monocromador, para verificar se o detector de silício está respondendo na faixa do visível. Passo: 10 nm, medidas por ponto: 3, range: 100-15000 nm,
Parâmetros: vmode 1 sen 27 acgain 0 tc 10 23.000000 4.000000
Magnitude (mV)	Comprimento de onda(nm)
2.066667	100.000000
4.200000	110.006496
2.500000	119.995843
1.033333	129.983848
0.400000	139.970400
0.200000	149.955388
0.100000	159.938698
0.100000	169.953713
0.100000	179.966815
0.100000	189.977892
0.100000	199.986831
0.100000	209.993518
0.100000	219.997843
0.100000	229.999691
0.100000	239.998951
0.100000	249.995510
0.100000	259.989255
0.100000	269.980075
0.100000	279.967855
0.100000	289.952485
0.100000	299.967229
0.100000	309.978574
0.100000	319.986407
0.500000	329.990614
0.500000	339.991083
0.100000	349.987699
0.100000	359.980351
0.100000	369.968923
0.200000	379.953305
0.200000	389.966640
0.500000	399.975528
0.600000	409.979855
0.900000	419.979505
1.400000	429.974365
1.900000	439.964320
2.400000	449.949258
3.200000	459.962211
4.100000	469.969883
5.000000	479.972159
6.233333	489.968924
7.400000	499.960063
8.700000	509.945462
10.000000	519.958041
11.300000	529.964611
12.500000	539.965056
13.700000	549.959260
14.700000	559.947107
15.700000	569.961414
16.700000	579.969090
17.600000	589.970019
18.500000	599.964084
19.200000	609.951169
19.800000	619.963975
20.400000	629.969520
21.000000	639.967689
21.700000	649.958362
22.400000	659.974143
23.033333	669.982145
23.766667	679.982249
24.200000	689.974337
24.300000	699.958293
24.600000	709.966584
24.666667	719.966452
24.666667	729.957777
24.633333	739.972944
24.700000	749.979275
24.833333	759.976649
25.066667	769.964947
25.400000	779.976434
25.500000	789.978547
25.600000	799.971163
25.600000	809.986456
25.500000	819.991950
25.400000	829.987524
25.366667	839.973057
25.033333	849.980590
25.300000	859.977774
25.300000	869.964487
25.500000	879.972667
25.700000	889.970064
26.100000	899.956554
26.300000	909.963971
26.466667	919.960166
26.700000	929.945014
27.000000	939.950239
27.200000	949.943797
27.466667	959.957334
27.400000	969.958880
27.000000	979.948311
26.100000	989.957154
24.900000	999.953553
28.066667	1009.951125
27.200000	1019.973245
26.433333	1029.992398
25.366667	1040.008556
24.600000	1050.021689
23.500000	1060.031768
22.400000	1070.038764
21.100000	1080.042648
19.700000	1090.043390
18.200000	1100.040962
16.766667	1110.035334
15.200000	1120.026478
13.700000	1130.014365
12.100000	1139.998964
10.766667	1149.980248
9.600000	1159.958187
8.633333	1169.932753
7.866667	1179.903916
7.500000	1189.871646
7.400000	1199.901459
7.600000	1209.927737
8.200000	1219.950448
9.100000	1229.969564
10.000000	1239.985056
11.200000	1249.996894
12.300000	1260.005048
13.333333	1270.009489
14.500000	1280.010187
15.700000	1290.007114
16.766667	1300.000238
17.800000	1309.989532
18.900000	1319.974965
19.900000	1329.956509
20.900000	1339.934133
21.800000	1349.907809
22.700000	1359.877506
23.400000	1369.908318
24.100000	1379.935041
24.700000	1389.957643
25.300000	1399.976095
25.800000	1409.990368
26.200000	1420.000431
26.700000	1430.006255
27.100000	1440.007809
27.400000	1450.005064
27.800000	1459.997990
28.200000	1469.986558
28.533333	1479.970736
28.900000	1489.950496
29.300000	1499.925807
29.700000	1509.896641
30.100000	1519.927668
30.400000	1529.954098
30.800000	1539.975901
31.233333	1549.993046
31.500000	1560.005504
31.900000	1570.013243
32.200000	1580.016234
32.500000	1590.014446
32.566667	1600.007849
32.900000	1609.996414
33.100000	1619.980108
33.200000	1629.958903
33.233333	1639.932769
33.300000	1649.901674
33.500000	1659.929857
33.466667	1669.952954
33.566667	1679.970935
33.600000	1689.983770
33.666667	1699.991427
33.700000	1709.993875
33.733333	1719.991085
33.766667	1729.983026
33.966667	1739.969667
34.166667	1749.950977
34.300000	1759.926926
34.433333	1769.897483
34.700000	1779.926480
34.800000	1789.949953
34.833333	1799.967872
35.200000	1809.980206
35.333333	1819.986923
35.400000	1829.987993
35.600000	1839.983385
35.600000	1849.973067
35.600000	1859.957008
35.600000	1869.935178
35.600000	1879.907546
35.500000	1889.937543
35.500000	1899.961600
35.300000	1909.979686
35.200000	1919.991770
35.033333	1929.997820
34.800000	1939.997805
34.600000	1949.991693
34.400000	1959.979452
34.200000	1969.961053
33.800000	1979.936462
33.400000	1989.905649
33.200000	1999.931619
32.800000	2009.951224
32.400000	2019.964432
31.900000	2029.971211
31.400000	2039.971530
30.900000	2049.965357
30.300000	2059.952660
29.700000	2069.933406
29.200000	2079.907565
28.566667	2089.937772
27.900000	2099.961244
27.200000	2109.977949
26.500000	2119.987853
25.933333	2129.990926
25.200000	2139.987134
24.600000	2149.976445
24.000000	2159.958828
23.500000	2169.934249
22.733333	2179.964958
22.400000	2189.988554
21.900000	2200.005003
21.400000	2210.014274
20.900000	2220.016333
20.400000	2230.011148
19.933333	2239.998685
19.500000	2249.978914
19.100000	2259.951800
18.600000	2269.979187
18.200000	2279.999074
17.900000	2290.011428
17.466667	2300.016216
17.100000	2310.013406
16.766667	2320.002964
16.400000	2329.984857
16.000000	2339.959052
15.666667	2349.987014
15.266667	2360.007115
14.900000	2370.019324
14.600000	2380.023605
14.100000	2390.019925
13.700000	2400.008252
13.333333	2409.988552
12.900000	2419.960790
12.533333	2429.986040
12.100000	2440.003061
11.700000	2450.011821
11.266667	2460.012286
10.900000	2470.004421
10.400000	2479.988194
10.066667	2489.963569
9.700000	2499.991262
9.300000	2510.010386
8.900000	2520.020908
8.500000	2530.022793
8.133333	2540.016007
7.900000	2550.000516
7.600000	2559.976285
7.200000	2570.003659
6.900000	2580.022118
6.700000	2590.031627
6.400000	2600.032152
6.300000	2610.023657
6.100000	2620.006107
5.900000	2629.979470
5.700000	2640.003706
5.600000	2650.018674
5.333333	2660.024338
5.300000	2670.020663
5.100000	2680.007614
5.000000	2689.985156
4.900000	2700.012914
4.766667	2710.031079
4.566667	2720.039615
4.500000	2730.038487
4.300000	2740.027658
4.200000	2750.007094
4.100000	2760.036073
4.000000	2770.055129
3.900000	2780.064224
3.800000	2790.063324
3.700000	2800.052393
3.700000	2810.031394
3.500000	2820.059249
3.500000	2830.076844
3.400000	2840.084142
3.400000	2850.081109
3.400000	2860.067706
3.400000	2870.043897
3.400000	2880.068239
3.366667	2890.081978
3.400000	2900.085079
3.400000	2910.077504
3.400000	2920.059217
3.500000	2930.030181
3.500000	2940.048574
3.500000	2950.056018
3.633333	2960.052475
3.700000	2970.037908
3.700000	2980.012280
3.800000	2990.033446
3.900000	3000.043348
3.900000	3010.041946
4.000000	3020.029203
4.000000	3030.005082
4.200000	3040.027109
4.200000	3050.037549
4.200000	3060.036365
4.266667	3070.023518
4.300000	3079.998970
4.300000	3090.019911
10.100000	3099.893420
9.900000	3109.994961
9.666667	3120.095937
9.800000	3130.196346
9.800000	3140.296185
9.700000	3150.395454
9.633333	3160.494150
9.600000	3170.592271
9.500000	3180.689816
9.400000	3190.786783
9.400000	3200.883170
9.400000	3210.978975
9.300000	3221.074196
9.166667	3231.168832
9.000000	3241.262880
8.900000	3251.356340
8.800000	3261.449208
8.766667	3271.541483
8.633333	3281.633164
8.600000	3291.724248
8.400000	3301.814733
8.266667	3311.904619
8.200000	3321.993902
8.100000	3332.082582
8.100000	3342.170656
8.100000	3352.258122
8.000000	3362.344979
7.733333	3372.431224
7.900000	3382.516857
7.900000	3392.601875
7.900000	3402.686276
8.000000	3412.770058
7.966667	3422.853220
8.000000	3432.935760
8.100000	3443.017676
8.100000	3453.098966
8.200000	3463.179628
8.300000	3473.259661
8.400000	3483.339063
8.566667	3493.417831
8.600000	3503.495964
8.833333	3513.573460
9.100000	3523.650318
9.300000	3533.726534
9.400000	3543.802109
9.600000	3553.877040
9.800000	3563.951324
10.100000	3574.024960
10.200000	3584.097947
10.400000	3594.170283
10.600000	3604.241965
10.800000	3614.312991
11.000000	3624.383361
11.000000	3634.453072
11.300000	3644.522122
11.500000	3654.590510
11.700000	3664.658233
11.800000	3674.725290
12.000000	3684.791680
12.100000	3694.857399
12.100000	3704.922447
12.400000	3714.986821
12.500000	3725.050520
12.700000	3735.113542
12.800000	3745.175884
12.900000	3755.237546
12.900000	3765.298526
12.866667	3775.358821
13.000000	3785.418429
13.100000	3795.477350
13.200000	3805.535580
13.200000	3815.593119
13.300000	3825.649964
13.400000	3835.706114
13.333333	3845.761566
13.400000	3855.816320
13.400000	3865.870372
13.466667	3875.923722
13.400000	3885.976367
13.500000	3896.028305
13.400000	3906.079536
13.400000	3916.130056
13.500000	3926.179865
13.500000	3936.228960
13.500000	3946.277339
13.433333	3956.325001
13.400000	3966.371944
13.433333	3976.418165
13.433333	3986.463664
13.500000	3996.508439
13.433333	4006.552486
13.400000	4016.595806
13.400000	4026.638395
13.400000	4036.680252
13.400000	4046.721376
13.200000	4056.761764
13.300000	4066.801414
13.300000	4076.840325
13.200000	4086.878495
13.200000	4096.915923
13.200000	4106.952605
13.133333	4116.988541
13.066667	4127.023728
13.100000	4137.058165
13.000000	4147.091851
13.000000	4157.124782
13.000000	4167.156958
12.900000	4177.188376
12.900000	4187.219034
12.900000	4197.248932
12.800000	4207.278067
12.800000	4217.306436
12.800000	4227.334040
12.800000	4237.360874
12.800000	4247.386939
12.700000	4257.412231
12.700000	4267.436750
12.700000	4277.460492
12.700000	4287.483457
12.700000	4297.505643
12.600000	4307.527048
12.600000	4317.547669
12.600000	4327.567506
12.600000	4337.586556
12.600000	4347.604817
12.600000	4357.622288
12.600000	4367.638968
12.600000	4377.654853
12.666667	4387.669942
12.633333	4397.684234
12.600000	4407.697726
12.700000	4417.710417
12.700000	4427.722305
12.700000	4437.733388
12.800000	4447.743664
12.800000	4457.753132
12.900000	4467.761790
12.900000	4477.769635
13.000000	4487.776666
13.000000	4497.782882
13.100000	4507.788280
13.200000	4517.792859
13.266667	4527.796616
13.300000	4537.799550
13.433333	4547.801659
13.500000	4557.802942
13.600000	4567.803396
13.700000	4577.803020
13.800000	4587.801811
13.933333	4597.799769
14.100000	4607.796891
14.133333	4617.793175
14.300000	4627.788620
14.400000	4637.783223
14.500000	4647.776984
14.700000	4657.769899
14.900000	4667.761968
15.000000	4677.753189
14.966667	4687.743559
15.300000	4697.733076
15.400000	4707.721740
15.600000	4717.709549
15.800000	4727.696499
16.000000	4737.682590
16.000000	4747.667820
16.100000	4757.652187
16.100000	4767.635689
16.300000	4777.618324
16.500000	4787.600091
16.500000	4797.580988
16.600000	4807.561012
16.700000	4817.540163
16.733333	4827.518437
16.800000	4837.495835
16.900000	4847.472352
17.000000	4857.447989
17.100000	4867.422743
17.200000	4877.396612
17.300000	4887.369594
17.300000	4897.341688
17.300000	4907.312891
17.400000	4917.283203
17.400000	4927.252620
17.466667	4937.221142
17.500000	4947.188767
17.600000	4957.155492
17.600000	4967.121316
17.600000	4977.086237
17.600000	4987.050253
17.600000	4997.013363
17.700000	5006.975564
17.500000	5016.936856
17.600000	5026.897235
17.600000	5036.856700
17.600000	5046.815250
17.500000	5056.772882
17.500000	5066.729596
17.400000	5076.685388
17.300000	5086.640257
17.300000	5096.594202
17.166667	5106.547220
17.100000	5116.499310
17.100000	5126.450469
17.000000	5136.400697
16.966667	5146.349991
16.900000	5156.298350
16.900000	5166.245771
16.900000	5176.192254
16.900000	5186.137795
16.800000	5196.082393
16.800000	5206.026047
16.800000	5215.968755
16.766667	5225.910514
16.766667	5235.851324
16.700000	5245.791182
16.700000	5255.730086
16.700000	5265.668034
16.666667	5275.605026
16.700000	5285.541058
16.766667	5295.476130
16.700000	5305.410239
16.800000	5315.343384
16.800000	5325.275562
16.800000	5335.206772
16.800000	5345.137013
16.800000	5355.066282
16.800000	5364.994577
16.733333	5374.921897
16.700000	5384.848240
16.700000	5394.773605
16.600000	5404.697988
16.600000	5414.621389
16.600000	5424.543806
16.600000	5434.465237
16.600000	5444.385679
16.600000	5454.305133
16.433333	5464.223594
16.700000	5474.141062
16.700000	5484.057536
16.700000	5493.973012
16.800000	5503.887490
16.800000	5513.800967
16.800000	5523.713441
16.800000	5533.624912
16.900000	5543.535377
16.900000	5553.444834
16.900000	5563.353282
16.900000	5573.260718
16.900000	5583.167141
16.900000	5593.072549
16.900000	5602.976940
16.900000	5612.880313
16.800000	5622.782666
16.800000	5632.683997
16.700000	5642.584303
16.600000	5652.483584
16.700000	5662.381837
16.700000	5672.279061
16.700000	5682.175254
16.700000	5692.070414
16.700000	5701.964539
16.700000	5711.857628
16.700000	5721.749679
16.700000	5731.640689
16.666667	5741.530657
16.700000	5751.419582
16.700000	5761.307461
16.700000	5771.194293
16.800000	5781.080076
16.800000	5790.964808
16.800000	5800.848487
16.800000	5810.731112
16.800000	5820.612680
16.800000	5830.493191
16.866667	5840.372641
16.900000	5850.251030
16.900000	5860.128355
17.000000	5870.004615
16.900000	5879.879808
16.900000	5889.753932
17.000000	5899.626986
17.100000	5909.498967
17.200000	5919.369874
17.266667	5929.499422
17.300000	5939.627836
17.400000	5949.755112
17.400000	5959.881248
17.500000	5970.006244
17.600000	5980.130096
17.600000	5990.252804
17.700000	6000.374364
17.800000	6010.494776
17.800000	6020.614036
17.900000	6030.732144
17.900000	6040.849097
17.900000	6050.964894
18.000000	6061.079532
18.066667	6071.193009
18.100000	6081.305324
18.200000	6091.416474
18.300000	6101.526458
18.200000	6111.635274
18.400000	6121.742919
18.500000	6131.849393
18.600000	6141.954692
18.633333	6152.058815
18.700000	6162.161760
18.800000	6172.263526
18.900000	6182.364109
19.000000	6192.463509
18.900000	6202.561723
19.100000	6212.658749
19.200000	6222.754586
19.300000	6232.849231
19.400000	6242.942683
19.500000	6253.034940
19.600000	6263.125999
19.600000	6273.215859
19.800000	6283.304518
19.666667	6293.391973
19.900000	6303.478224
20.000000	6313.563268
20.100000	6323.647103
20.200000	6333.729727
20.300000	6343.811138
20.400000	6353.891334
20.500000	6363.970314
20.600000	6374.048076
20.600000	6384.124617
20.800000	6394.199935
20.900000	6404.274029
21.000000	6414.346897
21.100000	6424.418537
21.200000	6434.488947
21.300000	6444.558124
21.400000	6454.626068
21.500000	6464.692776
21.500000	6474.758245
21.700000	6484.822476
21.700000	6494.885464
21.800000	6504.947209
21.900000	6515.007708
22.000000	6525.066960
22.000000	6535.124962
22.100000	6545.181713
22.100000	6555.237211
22.200000	6565.291454
22.300000	6575.344440
22.400000	6585.396166
22.400000	6595.446632
22.400000	6605.495835
22.500000	6615.543773
22.500000	6625.590444
22.500000	6635.635847
22.433333	6645.679979
22.600000	6655.722838
22.600000	6665.764424
22.700000	6675.804732
22.700000	6685.843763
22.700000	6695.881514
22.700000	6705.917982
22.700000	6715.953166
22.700000	6725.987065
22.700000	6736.019675
22.700000	6746.050996
22.600000	6756.081025
22.600000	6766.109760
22.600000	6776.137200
22.566667	6786.163343
22.500000	6796.188186
22.500000	6806.211727
22.266667	6816.233966
22.366667	6826.254899
22.300000	6836.274526
22.200000	6846.292843
22.200000	6856.309849
22.100000	6866.325543
22.000000	6876.339922
21.900000	6886.352984
21.900000	6896.364728
21.800000	6906.375151
21.700000	6916.384252
21.600000	6926.392028
21.500000	6936.398478
21.400000	6946.403601
21.200000	6956.407393
21.100000	6966.409853
21.000000	6976.410979
20.666667	6986.410769
20.800000	6996.409222
20.600000	7006.406335
20.500000	7016.402106
20.400000	7026.396534
20.200000	7036.389617
20.100000	7046.381352
19.900000	7056.371738
19.800000	7066.360773
19.700000	7076.348455
19.500000	7086.334782
19.300000	7096.319752
19.300000	7106.303363
19.100000	7116.285614
18.900000	7126.266502
18.800000	7136.246025
18.600000	7146.224183
18.366667	7156.200971
18.300000	7166.176390
18.100000	7176.150436
18.000000	7186.123109
17.900000	7196.094405
17.700000	7206.064324
17.533333	7216.032862
17.400000	7226.000020
17.033333	7235.965793
17.100000	7245.930181
16.900000	7255.893181
16.700000	7265.854793
16.533333	7275.815013
16.400000	7285.773839
16.233333	7295.731271
16.200000	7305.687306
15.900000	7315.641942
15.900000	7325.595177
15.800000	7335.547010
15.700000	7345.497438
15.600000	7355.446459
15.500000	7365.394072
15.400000	7375.340275
15.300000	7385.285066
15.033333	7395.228442
15.200000	7405.170403
15.100000	7415.110945
15.100000	7425.050068
15.100000	7434.987769
15.000000	7444.924047
15.100000	7454.858899
15.100000	7464.792323
15.100000	7474.724318
15.133333	7484.654882
15.133333	7494.584013
15.200000	7504.511709
15.300000	7514.437968
15.400000	7524.362788
15.533333	7534.286167
15.700000	7544.208104
15.800000	7554.128596
15.800000	7564.047642
16.000000	7573.965239
16.100000	7583.881386
16.300000	7593.796081
16.500000	7603.709322
16.700000	7613.621107
16.900000	7623.531435
17.000000	7633.440302
17.200000	7643.347708
17.400000	7653.253651
17.700000	7663.158128
17.900000	7673.061137
18.100000	7682.962678
18.366667	7692.862747
18.500000	7702.761344
18.800000	7712.658465
19.000000	7722.554110
19.200000	7732.448276
19.500000	7742.340961
19.700000	7752.232164
20.000000	7762.121883
20.200000	7772.010115
20.400000	7781.896860
20.600000	7791.782114
20.900000	7801.665876
21.100000	7811.548145
21.400000	7821.428917
21.600000	7831.308193
21.866667	7841.185968
22.100000	7851.062242
22.300000	7860.937013
22.333333	7871.063420
22.900000	7881.188241
23.100000	7891.311475
23.300000	7901.433119
23.500000	7911.553172
23.733333	7921.671631
24.000000	7931.788495
24.300000	7941.903761
24.366667	7952.017428
24.700000	7962.129492
24.900000	7972.239953
25.200000	7982.348808
25.400000	7992.456056
25.600000	8002.561693
25.800000	8012.665719
26.100000	8022.768131
26.200000	8032.868926
26.566667	8042.968104
26.800000	8053.065662
27.000000	8063.161598
27.200000	8073.255909
27.400000	8083.348595
27.700000	8093.439652
27.866667	8103.529079
27.966667	8113.616874
28.300000	8123.703035
28.500000	8133.787560
28.700000	8143.870446
29.000000	8153.951691
29.100000	8164.031295
29.300000	8174.109254
29.600000	8184.185566
29.700000	8194.260231
29.900000	8204.333244
30.100000	8214.404605
30.400000	8224.474312
30.500000	8234.542362
30.700000	8244.608753
30.900000	8254.673484
31.100000	8264.736552
31.266667	8274.797955
31.400000	8284.857692
31.700000	8294.915760
31.800000	8304.972157
31.900000	8315.026882
32.133333	8325.079931
32.300000	8335.131304
32.433333	8345.180998
32.600000	8355.229011
32.800000	8365.275341
32.966667	8375.319986
33.100000	8385.362944
33.200000	8395.404213
33.333333	8405.443791
33.500000	8415.481676
33.500000	8425.517866
33.900000	8435.552359
33.933333	8445.585153
34.100000	8455.616246
34.233333	8465.645636
34.366667	8475.673320
34.500000	8485.699298
34.600000	8495.723566
34.633333	8505.746123
34.800000	8515.766966
34.933333	8525.786095
35.000000	8535.803506
35.133333	8545.819198
35.300000	8555.833169
35.400000	8565.845416
35.500000	8575.855938
35.500000	8585.864732
35.700000	8595.871797
35.700000	8605.877131
35.866667	8615.880732
35.900000	8625.882597
36.066667	8635.882724
36.100000	8645.881112
36.200000	8655.877759
36.233333	8665.872662
36.300000	8675.865820
36.400000	8685.857230
36.500000	8695.846891
36.533333	8705.834800
36.600000	8715.820956
36.700000	8725.805356
36.633333	8735.787999
36.800000	8745.768882
36.866667	8755.748003
36.900000	8765.725361
36.900000	8775.700953
37.000000	8785.674778
37.000000	8795.646833
36.900000	8805.617116
37.033333	8815.585626
37.100000	8825.552360
37.200000	8835.517316
37.133333	8845.480493
37.200000	8855.441888
37.200000	8865.401500
37.100000	8875.359326
37.300000	8885.315364
37.300000	8895.269612
37.300000	8905.222069
37.333333	8915.172732
37.300000	8925.121599
37.366667	8935.068669
37.400000	8945.013939
37.366667	8954.957407
37.366667	8964.899072
37.300000	8974.838931
37.333333	8984.776982
37.300000	8994.713223
37.300000	9004.647653
37.266667	9014.580269
37.166667	9024.511069
37.200000	9034.440051
37.200000	9044.367214
37.200000	9054.292555
37.200000	9064.216073
37.100000	9074.137764
37.100000	9084.057628
37.000000	9093.975662
37.000000	9103.891865
37.000000	9113.806234
36.900000	9123.718767
36.900000	9133.629462
36.800000	9143.538318
36.600000	9153.445332
36.700000	9163.350502
36.600000	9173.253826
36.600000	9183.155303
36.600000	9193.054930
36.500000	9202.952706
36.400000	9212.848628
36.333333	9222.742694
36.200000	9232.634903
36.200000	9242.525252
36.100000	9252.413739
36.000000	9262.300363
35.933333	9272.185121
35.800000	9282.068011
35.700000	9291.949032
35.666667	9301.828181
35.600000	9311.705457
35.400000	9321.827718
35.366667	9331.948006
35.200000	9342.066320
35.200000	9352.182657
35.100000	9362.297014
34.933333	9372.409391
34.800000	9382.519784
34.700000	9392.628191
34.600000	9402.734611
34.400000	9412.839041
34.200000	9422.941479
34.100000	9433.041923
34.066667	9443.140371
33.800000	9453.236821
33.700000	9463.331270
33.600000	9473.423716
33.433333	9483.514158
33.300000	9493.602593
33.100000	9503.689019
33.000000	9513.773433
32.900000	9523.855835
32.700000	9533.936221
32.500000	9544.014589
32.400000	9554.090938
32.200000	9564.165265
32.000000	9574.237568
31.800000	9584.307845
31.700000	9594.376094
31.566667	9604.442312
31.300000	9614.506498
31.200000	9624.568649
31.000000	9634.628764
30.833333	9644.686840
30.566667	9654.742875
30.400000	9664.796866
30.300000	9674.848813
30.100000	9684.898712
29.833333	9694.946561
29.666667	9704.992359
29.366667	9715.036104
29.300000	9725.077792
29.100000	9735.117422
28.800000	9745.154992
28.600000	9755.190500
28.400000	9765.223944
28.033333	9775.255321
28.000000	9785.284630
27.700000	9795.311867
27.500000	9805.337032
27.300000	9815.360122
27.100000	9825.381135
26.766667	9835.400069
26.600000	9845.416921
26.366667	9855.431690
26.000000	9865.444373
25.800000	9875.454968
25.600000	9885.463474
25.200000	9895.469888
25.100000	9905.474208
24.900000	9915.476431
24.566667	9925.476556
24.300000	9935.474581
24.000000	9945.470503
23.600000	9955.464321
23.400000	9965.456032
23.200000	9975.445634
22.900000	9985.433125
22.600000	9995.418503
22.200000	10005.401766
21.833333	10015.382912
21.600000	10025.361938
21.300000	10035.338842
21.000000	10045.313623
20.700000	10055.286278
20.300000	10065.256805
19.966667	10075.225203
19.700000	10085.191468
19.400000	10095.155599
19.000000	10105.117593
18.700000	10115.077450
18.366667	10125.035165
18.100000	10134.990738
17.700000	10144.944167
17.400000	10154.895448
17.000000	10164.844581
16.700000	10174.791562
16.300000	10184.736390
15.900000	10194.679063
15.666667	10204.619579
15.300000	10214.557935
14.900000	10224.494130
14.600000	10234.428161
14.300000	10244.360026
13.900000	10254.289723
13.566667	10264.217250
13.200000	10274.142606
12.900000	10284.065787
12.700000	10293.986791
12.300000	10303.905618
12.000000	10313.822263
11.633333	10323.736727
11.400000	10333.649005
11.033333	10343.559097
10.700000	10353.467000
10.500000	10363.372712
10.200000	10373.276231
9.800000	10383.177554
9.700000	10393.076681
9.400000	10402.973608
9.200000	10412.868334
9.000000	10422.760856
8.700000	10432.651172
8.500000	10442.539281
8.300000	10452.425180
8.100000	10462.308867
7.900000	10472.190340
7.700000	10482.310526
7.600000	10492.428385
7.400000	10502.543914
7.200000	10512.657111
7.100000	10522.767973
6.900000	10532.876498
6.800000	10542.982685
6.700000	10553.086530
6.566667	10563.188031
6.366667	10573.287187
6.300000	10583.383995
6.200000	10593.478453
6.100000	10603.570558
6.000000	10613.660309
5.900000	10623.747702
5.700000	10633.832737
5.800000	10643.915410
5.600000	10653.995719
5.600000	10664.073663
5.600000	10674.149238
5.500000	10684.222443
5.366667	10694.293276
5.300000	10704.361733
5.300000	10714.427814
5.300000	10724.491515
5.200000	10734.552835
5.100000	10744.611771
5.000000	10754.668321
5.000000	10764.722482
5.000000	10774.774253
5.000000	10784.823632
5.000000	10794.870615
4.900000	10804.915202
4.800000	10814.957388
4.766667	10824.997174
4.700000	10835.034555
4.700000	10845.069530
4.700000	10855.102097
4.700000	10865.132254
4.700000	10875.159997
4.600000	10885.185326
4.500000	10895.208238
4.500000	10905.228730
4.500000	10915.246800
4.400000	10925.262446
4.400000	10935.275666
4.400000	10945.286458
4.266667	10955.294820
4.300000	10965.300748
4.300000	10975.304242
4.300000	10985.305298
4.200000	10995.303915
4.200000	11005.300090
4.200000	11015.293821
4.100000	11025.285106
4.100000	11035.273943
4.100000	11045.260329
4.100000	11055.244262
4.000000	11065.225741
4.000000	11075.204762
3.900000	11085.181324
3.900000	11095.155424
3.900000	11105.127060
3.900000	11115.096230
3.900000	11125.062932
3.900000	11135.027164
3.733333	11144.988922
3.833333	11154.948206
3.800000	11164.905013
3.766667	11174.859340
3.700000	11184.811186
3.700000	11194.760548
3.700000	11204.707424
3.700000	11214.651811
3.700000	11224.593709
3.700000	11234.533114
3.666667	11244.470024
3.600000	11254.404437
3.600000	11264.336350
3.600000	11274.265763
3.600000	11284.192671
3.600000	11294.117074
3.600000	11304.038969
3.600000	11313.958354
3.600000	11323.875226
3.600000	11333.789583
3.600000	11343.701424
3.600000	11353.610745
3.600000	11363.517546
3.600000	11373.421823
3.600000	11383.323574
3.600000	11393.222797
3.600000	11403.119490
3.600000	11413.013652
3.600000	11422.905278
3.600000	11432.794368
3.600000	11442.680919
3.600000	11452.564929
3.600000	11462.681638
3.600000	11472.795679
3.600000	11482.907049
3.600000	11493.015747
3.600000	11503.121769
3.600000	11513.225114
3.600000	11523.325779
3.600000	11533.423761
3.600000	11543.519059
3.600000	11553.611670
3.600000	11563.701592
3.600000	11573.788822
3.633333	11583.873358
3.666667	11593.955198
3.666667	11604.034339
3.600000	11614.110779
3.666667	11624.184516
3.600000	11634.255547
3.600000	11644.323870
3.600000	11654.389482
3.633333	11664.452382
3.600000	11674.512567
3.600000	11684.570034
3.600000	11694.624781
3.600000	11704.676807
3.600000	11714.726107
3.600000	11724.772681
3.600000	11734.816526
3.600000	11744.857640
3.600000	11754.896019
3.600000	11764.931663
3.600000	11774.964568
3.600000	11784.994732
3.600000	11795.022153
3.600000	11805.046829
3.500000	11815.068756
3.500000	11825.087934
3.500000	11835.104359
3.500000	11845.118029
3.500000	11855.128942
3.500000	11865.137096
3.500000	11875.142488
3.500000	11885.145116
3.466667	11895.144977
3.400000	11905.142069
3.400000	11915.136391
3.400000	11925.127939
3.400000	11935.116711
3.400000	11945.102705
3.400000	11955.085918
3.400000	11965.066349
3.400000	11975.043995
3.300000	11985.018853
3.300000	11994.990922
3.300000	12004.960199
3.300000	12014.926681
3.300000	12024.890367
3.300000	12034.851253
3.300000	12044.809339
3.166667	12054.764620
3.200000	12064.717096
3.100000	12074.666763
3.100000	12084.613620
3.100000	12094.557664
3.100000	12104.498893
3.100000	12114.437304
3.100000	12124.372896
3.100000	12134.305665
3.100000	12144.235610
3.100000	12154.162728
3.100000	12164.087017
3.100000	12174.008475
3.000000	12183.927099
3.066667	12193.842886
3.000000	12203.755836
3.000000	12213.665945
3.000000	12223.573211
3.000000	12233.477632
3.000000	12243.379205
3.000000	12253.277928
2.966667	12263.173799
3.000000	12273.066816
3.000000	12282.956976
3.000000	12292.844277
3.000000	12302.958553
3.000000	12313.069831
3.000000	12323.178108
2.966667	12333.283381
3.000000	12343.385649
3.000000	12353.484908
3.000000	12363.581157
3.000000	12373.674392
3.000000	12383.764611
3.000000	12393.851813
3.000000	12403.935993
3.000000	12414.017151
3.100000	12424.095283
3.100000	12434.170387
3.100000	12444.242461
3.100000	12454.311502
3.100000	12464.377508
3.100000	12474.440475
3.100000	12484.500403
3.100000	12494.557287
3.100000	12504.611127
3.100000	12514.661919
3.100000	12524.709661
3.100000	12534.754350
3.100000	12544.795985
3.100000	12554.834562
3.200000	12564.870079
3.166667	12574.902534
3.200000	12584.931924
3.200000	12594.958247
3.200000	12604.981500
3.200000	12615.001681
3.200000	12625.018788
3.300000	12635.032818
3.300000	12645.043768
3.300000	12655.051637
3.300000	12665.056421
3.300000	12675.058119
3.300000	12685.056727
3.200000	12695.052244
3.300000	12705.044667
3.300000	12715.033993
3.300000	12725.020221
3.300000	12735.003347
3.300000	12744.983369
3.300000	12754.960285
3.200000	12764.934093
3.300000	12774.904789
3.300000	12784.872372
3.300000	12794.836840
3.233333	12804.798188
3.233333	12814.756416
3.200000	12824.711521
3.133333	12834.663500
3.200000	12844.612351
3.200000	12854.558072
3.100000	12864.500660
3.100000	12874.440112
3.100000	12884.376427
3.100000	12894.309601
3.100000	12904.239633
3.100000	12914.166520
3.100000	12924.090260
3.100000	12934.010850
3.100000	12943.928287
3.100000	12953.842570
3.100000	12963.753695
3.000000	12973.661661
2.966667	12983.566466
3.000000	12993.468105
3.000000	13003.366579
3.000000	13013.261883
2.900000	13023.154015
2.900000	13033.042973
2.900000	13043.153395
2.900000	13053.260492
2.900000	13063.364261
2.800000	13073.464701
2.800000	13083.561807
2.800000	13093.655578
2.800000	13103.746012
2.800000	13113.833104
2.700000	13123.916854
2.700000	13133.997258
2.666667	13144.074315
2.600000	13154.148020
2.600000	13164.218372
2.600000	13174.285368
2.600000	13184.349006
2.600000	13194.409283
2.433333	13204.466196
2.500000	13214.519743
2.400000	13224.569922
2.400000	13234.616729
2.400000	13244.660162
2.400000	13254.700219
2.400000	13264.736897
2.300000	13274.770194
2.300000	13284.800106
2.300000	13294.826632
2.200000	13304.849769
2.200000	13314.869514
2.100000	13324.885865
2.100000	13334.898819
2.100000	13344.908374
2.100000	13354.914527
2.100000	13364.917275
2.066667	13374.916616
2.000000	13384.912548
1.900000	13394.905067
1.900000	13404.894172
1.900000	13414.879860
1.900000	13424.862128
1.866667	13434.840973
1.800000	13444.816394
1.800000	13454.788388
1.800000	13464.756951
1.800000	13474.722082
1.800000	13484.683778
1.600000	13494.642036
1.600000	13504.596855
1.600000	13514.548230
1.600000	13524.496161
1.600000	13534.440644
1.600000	13544.381676
1.566667	13554.319256
1.500000	13564.253380
1.500000	13574.184047
1.500000	13584.111253
1.500000	13594.034997
1.500000	13603.955275
1.400000	13613.872085
1.400000	13623.785424
1.400000	13633.695291
1.400000	13643.601682
1.400000	13653.504594
1.400000	13663.404027
1.400000	13673.299976
1.400000	13683.192439
1.400000	13693.301130
1.400000	13703.406173
1.333333	13713.507566
1.300000	13723.605306
1.200000	13733.699390
1.200000	13743.789816
1.200000	13753.876581
1.200000	13763.959682
1.200000	13774.039117
1.200000	13784.114882
1.200000	13794.186976
1.200000	13804.255395
1.200000	13814.320137
1.200000	13824.381199
1.200000	13834.438579
1.200000	13844.492274
1.200000	13854.542280
1.200000	13864.588596
1.200000	13874.631219
1.200000	13884.670146
1.200000	13894.705375
1.200000	13904.736902
1.200000	13914.764725
1.200000	13924.788842
1.200000	13934.809249
1.200000	13944.825944
1.200000	13954.838925
1.200000	13964.848189
1.200000	13974.853732
1.200000	13984.855553
1.200000	13994.853649
1.166667	14004.848017
1.200000	14014.838654
1.166667	14024.825558
1.200000	14034.808726
1.100000	14044.788155
1.100000	14054.763844
1.100000	14064.735788
1.100000	14074.703986
1.100000	14084.668434
1.100000	14094.629131
1.100000	14104.586073
1.100000	14114.539259
1.100000	14124.488684
1.100000	14134.434347
1.100000	14144.376244
1.100000	14154.314374
1.100000	14164.248734
1.100000	14174.179320
1.100000	14184.106131
1.100000	14194.029163
1.100000	14203.948415
1.100000	14213.863883
1.100000	14223.775564
1.100000	14233.683457
1.100000	14243.587558
1.100000	14253.487865
1.100000	14263.384375
1.100000	14273.277086
1.100000	14283.380928
1.100000	14293.480799
1.100000	14303.576695
1.100000	14313.668613
1.100000	14323.756550
1.100000	14333.840505
1.100000	14343.920473
1.100000	14353.996453
1.100000	14364.068441
1.100000	14374.136434
1.033333	14384.200430
1.000000	14394.260426
1.000000	14404.316420
0.966667	14414.368407
1.000000	14424.416386
0.900000	14434.460354
0.900000	14444.500308
0.900000	14454.536246
0.900000	14464.568163
0.900000	14474.596058
0.900000	14484.619928
0.900000	14494.639770
0.900000	14504.655581
0.900000	14514.667359
0.900000	14524.675101
0.900000	14534.678803
0.900000	14544.678463
0.900000	14554.674079
0.900000	14564.665647
0.900000	14574.653165
0.900000	14584.636630
0.900000	14594.616039
0.900000	14604.591390
0.900000	14614.562679
0.900000	14624.529904
0.900000	14634.493063
0.900000	14644.452151
0.900000	14654.407168
0.900000	14664.358109
0.900000	14674.304972
0.900000	14684.247754
0.900000	14694.186453
0.900000	14704.121066
0.900000	14714.051589
0.900000	14723.978021
0.900000	14733.900359
0.900000	14743.818599
0.900000	14753.732739
0.900000	14763.642776
0.900000	14773.548707
0.900000	14783.450531
0.900000	14793.348243
0.900000	14803.452299
0.900000	14813.552061
0.900000	14823.647526
0.900000	14833.738692
0.900000	14843.825556
0.900000	14853.908114
0.900000	14863.986363
0.900000	14874.060302
0.900000	14884.129926
0.900000	14894.195234
0.900000	14904.256221
0.900000	14914.312886
0.900000	14924.365224
0.900000	14934.413234
0.900000	14944.456912
0.900000	14954.496256
0.900000	14964.531262
0.900000	14974.561928
0.900000	14984.588250
0.900000	14994.610226
0.900000	15004.627853
