ARQUIVO DE MEDIDA
Usuário: 
Amostra: 
Comentário: Medida de tensão sobre carga de 500 k Ohm acoplada ao sensor de Si
Parâmetros: vmode 1 sen 25 acgain 0 tc 10 23.000000 4.000000
Magnitude (mV)	Comprimento de onda(nm)
0.120000	500.000000
0.100000	510.011571
0.120000	520.024111
0.113333	530.030641
0.106667	540.031045
0.093333	550.025207
0.146667	560.013012
0.146667	570.027276
0.160000	580.034908
0.153333	590.035792
0.146667	600.029811
0.253333	610.016850
0.353333	620.029609
0.353333	630.035106
0.500000	640.033226
0.540000	650.023850
0.680000	660.039581
0.806667	670.047531
0.893333	680.047583
1.080000	690.039619
1.293333	700.023520
1.453333	710.031757
1.660000	720.031570
1.860000	730.022839
2.120000	740.037949
2.313333	750.044222
2.566667	760.041537
2.846667	770.029776
3.106667	780.041203
3.366667	790.043254
3.720000	800.035809
4.126667	810.051040
4.560000	820.056470
5.093333	830.051979
5.633333	840.037447
6.193333	850.044914
6.906667	860.042031
7.666667	870.028676
8.466667	880.036787
9.266667	890.034114
10.140000	900.020535
10.920000	910.027880
11.640000	920.024003
12.480000	930.008778
13.666667	940.013929
15.120000	950.007412
16.440000	960.020874
17.773333	970.022344
18.173333	980.011697
17.520000	990.020462
15.906667	1000.016782
14.106667	1010.032105
12.193333	1020.034651
10.360000	1030.024293
8.606667	1040.032357
6.993333	1050.027180
5.493333	1060.040003
4.240000	1070.039247
3.233333	1080.024783
2.540000	1090.027721
1.980000	1100.016607
1.560000	1110.022462
1.233333	1120.013918
0.873333	1130.021903
0.626667	1140.015139
0.493333	1150.024460
0.353333	1160.018678
0.220000	1170.028530
0.120000	1180.022920
0.120000	1190.032491
0.120000	1200.026238
0.113333	1210.034705
0.120000	1220.026982
0.140000	1230.033513
0.133333	1240.023486
0.126667	1250.027241
0.093333	1260.014067
0.133333	1270.014196
0.106667	1280.027337
0.093333	1290.022929
0.113333	1300.031045
0.106667	1310.021231
0.146667	1320.023448
0.093333	1330.037393
0.160000	1340.032772
0.120000	1350.039375
0.153333	1360.027020
0.113333	1370.025382
0.126667	1380.034147
0.120000	1390.023299
0.133333	1400.022337
0.126667	1410.030941
0.140000	1420.019265
0.113333	1430.016627
0.120000	1440.022700
0.140000	1450.037154
0.120000	1460.030382
0.120000	1470.031449
0.153333	1480.040018
0.146667	1490.026667
0.133333	1500.020266
0.180000	1510.020474
0.186667	1520.026943
0.206667	1530.039325
0.193333	1540.028514
0.213333	1550.023046
0.213333	1560.022565
0.260000	1570.026713
0.286667	1580.035128
0.293333	1590.047446
0.266667	1600.034963
0.273333	1610.025790
0.300000	1620.019556
0.333333	1630.015887
0.366667	1640.014407
0.393333	1650.014737
0.413333	1660.016494
0.433333	1670.019293
0.466667	1680.022747
0.480000	1690.026464
0.466667	1700.030050
0.500000	1710.033109
0.540000	1720.035241
0.593333	1730.036043
0.640000	1740.035110
0.640000	1750.032034
0.726667	1760.026402
0.733333	1770.017802
0.786667	1780.005815
0.793333	1790.016891
0.813333	1800.023569
0.880000	1810.025420
0.880000	1820.022015
0.940000	1830.012918
0.980000	1840.024134
0.980000	1850.028606
1.040000	1860.025888
1.040000	1870.015534
1.073333	1880.023177
1.113333	1890.022095
1.146667	1900.011831
1.093333	1910.017731
1.133333	1920.013335
1.140000	1930.023793
1.100000	1940.022821
1.106667	1950.035370
1.100000	1960.035337
1.106667	1970.047468
1.020000	1980.045845
1.040000	1990.055007
0.973333	2000.049221
