ARQUIVO DE MEDIDA
Usuário: 
Amostra: 
Comentário: Medida de tensão sobre carga de 500 k Ohm acoplada ao sensor de Si
Parâmetros: vmode 1 sen 24 acgain 0 tc 10 23.000000 4.000000
Magnitude (mV)	Comprimento de onda(nm)
0.106667	500.000000
0.123333	510.011571
0.103333	520.024111
0.106667	530.030641
0.136667	540.031045
0.106667	550.025207
0.123333	560.013012
0.150000	570.027276
0.170000	580.034908
0.193333	590.035792
0.240000	600.029811
0.260000	610.016850
0.290000	620.029609
0.353333	630.035106
0.430000	640.033226
0.553333	650.023850
0.680000	660.039581
0.836667	670.047531
0.970000	680.047583
1.070000	690.039619
1.303333	700.023520
1.460000	710.031757
1.650000	720.031570
1.896667	730.022839
2.090000	740.037949
2.333333	750.044222
2.550000	760.041537
2.836667	770.029776
3.086667	780.041203
3.440000	790.043254
3.766667	800.035809
4.126667	810.051040
4.576667	820.056470
5.066667	830.051979
5.580000	840.037447
6.280000	850.044914
6.940000	860.042031
7.700000	870.028676
8.550000	880.036787
9.370000	890.034114
10.203333	900.020535
11.023333	910.027880
11.873333	920.024003
12.743333	930.008778
13.990000	940.013929
15.456667	950.007412
17.036667	960.020874
18.240000	970.022344
18.603333	980.011697
17.743333	990.020462
16.030000	1000.016782
14.193333	1010.032105
12.226667	1020.034651
10.333333	1030.024293
8.593333	1040.032357
6.873333	1050.027180
5.443333	1060.040003
4.186667	1070.039247
3.196667	1080.024783
2.493333	1090.027721
1.973333	1100.016607
1.510000	1110.022462
1.200000	1120.013918
0.930000	1130.021903
0.650000	1140.015139
0.440000	1150.024460
0.340000	1160.018678
0.246667	1170.028530
0.133333	1180.022920
0.150000	1190.032491
0.136667	1200.026238
0.140000	1210.034705
0.153333	1220.026982
0.106667	1230.033513
0.116667	1240.023486
0.076667	1250.027241
0.106667	1260.014067
0.143333	1270.014196
0.126667	1280.027337
0.126667	1290.022929
0.130000	1300.031045
0.133333	1310.021231
0.113333	1320.023448
0.126667	1330.037393
0.106667	1340.032772
0.120000	1350.039375
0.123333	1360.027020
0.146667	1370.025382
0.093333	1380.034147
0.113333	1390.023299
0.150000	1400.022337
0.116667	1410.030941
0.156667	1420.019265
0.123333	1430.016627
0.116667	1440.022700
0.143333	1450.037154
0.150000	1460.030382
0.173333	1470.031449
0.170000	1480.040018
0.160000	1490.026667
0.140000	1500.020266
0.160000	1510.020474
0.146667	1520.026943
0.143333	1530.039325
0.210000	1540.028514
0.236667	1550.023046
0.206667	1560.022565
0.250000	1570.026713
0.263333	1580.035128
0.293333	1590.047446
0.276667	1600.034963
0.296667	1610.025790
0.316667	1620.019556
0.340000	1630.015887
0.373333	1640.014407
0.376667	1650.014737
0.406667	1660.016494
0.440000	1670.019293
0.436667	1680.022747
0.436667	1690.026464
0.460000	1700.030050
0.526667	1710.033109
0.583333	1720.035241
0.603333	1730.036043
0.593333	1740.035110
0.643333	1750.032034
0.670000	1760.026402
0.746667	1770.017802
0.776667	1780.005815
0.760000	1790.016891
0.823333	1800.023569
0.843333	1810.025420
0.890000	1820.022015
0.960000	1830.012918
0.986667	1840.024134
0.986667	1850.028606
0.976667	1860.025888
1.013333	1870.015534
1.090000	1880.023177
1.103333	1890.022095
1.126667	1900.011831
1.116667	1910.017731
1.106667	1920.013335
1.116667	1930.023793
1.126667	1940.022821
1.090000	1950.035370
1.080000	1960.035337
1.043333	1970.047468
1.046667	1980.045845
1.030000	1990.055007
0.946667	2000.049221
