ARQUIVO DE MEDIDA
Usuário: 
Amostra: 
Comentário: Medida de tensão sobre carga de 6,8 MOhm acoplada ao sensor de Si
Parâmetros: vmode 1 sen 25 acgain 0 tc 10 23.000000 4.000000
Magnitude (mV)	Comprimento de onda(nm)
0.400000	500.000000
0.366667	510.011571
0.353333	520.024111
0.486667	530.030641
0.533333	540.031045
0.586667	550.025207
0.486667	560.013012
0.780000	570.027276
0.493333	580.034908
0.680000	590.035792
1.113333	600.029811
1.500000	610.016850
1.580000	620.029609
2.046667	630.035106
2.473333	640.033226
2.986667	650.023850
4.006667	660.039581
4.680000	670.047531
5.206667	680.047583
6.280000	690.039619
7.373333	700.023520
8.386667	710.031757
9.366667	720.031570
10.573333	730.022839
11.893333	740.037949
13.106667	750.044222
14.240000	760.041537
15.926667	770.029776
17.433333	780.041203
19.340000	790.043254
20.926667	800.035809
23.033333	810.051040
25.660000	820.056470
28.173333	830.051979
31.353333	840.037447
34.806667	850.044914
38.913333	860.042031
43.040000	870.028676
47.993333	880.036787
52.966667	890.034114
57.580000	900.020535
62.226667	910.027880
66.593333	920.024003
71.180000	930.008778
77.160000	940.013929
84.053333	950.007412
91.920000	960.020874
98.333333	970.022344
100.866667	980.011697
96.800000	990.020462
87.753333	1000.016782
76.926667	1010.032105
67.006667	1020.034651
57.460000	1030.024293
47.473333	1040.032357
38.400000	1050.027180
30.246667	1060.040003
23.393333	1070.039247
18.286667	1080.024783
14.093333	1090.027721
11.053333	1100.016607
8.873333	1110.022462
6.940000	1120.013918
5.080000	1130.021903
3.800000	1140.015139
2.706667	1150.024460
1.853333	1160.018678
1.080000	1170.028530
0.646667	1180.022920
0.306667	1190.032491
0.400000	1200.026238
0.393333	1210.034705
0.440000	1220.026982
0.406667	1230.033513
0.386667	1240.023486
0.453333	1250.027241
0.440000	1260.014067
0.360000	1270.014196
0.386667	1280.027337
0.366667	1290.022929
0.420000	1300.031045
0.526667	1310.021231
0.300000	1320.023448
0.393333	1330.037393
0.393333	1340.032772
0.393333	1350.039375
0.373333	1360.027020
0.326667	1370.025382
0.273333	1380.034147
0.313333	1390.023299
0.466667	1400.022337
0.493333	1410.030941
0.333333	1420.019265
0.493333	1430.016627
0.453333	1440.022700
0.633333	1450.037154
0.686667	1460.030382
0.706667	1470.031449
0.766667	1480.040018
0.606667	1490.026667
0.780000	1500.020266
0.686667	1510.020474
1.066667	1520.026943
0.693333	1530.039325
1.106667	1540.028514
1.260000	1550.023046
1.360000	1560.022565
1.466667	1570.026713
1.433333	1580.035128
1.540000	1590.047446
1.613333	1600.034963
1.706667	1610.025790
1.693333	1620.019556
1.706667	1630.015887
2.126667	1640.014407
1.886667	1650.014737
2.366667	1660.016494
2.240000	1670.019293
2.406667	1680.022747
2.526667	1690.026464
2.660000	1700.030050
2.880000	1710.033109
3.053333	1720.035241
3.246667	1730.036043
3.553333	1740.035110
3.480000	1750.032034
4.006667	1760.026402
4.093333	1770.017802
4.200000	1780.005815
4.560000	1790.016891
4.473333	1800.023569
4.986667	1810.025420
5.286667	1820.022015
5.220000	1830.012918
5.413333	1840.024134
5.760000	1850.028606
5.706667	1860.025888
5.933333	1870.015534
5.966667	1880.023177
6.126667	1890.022095
6.486667	1900.011831
6.466667	1910.017731
6.193333	1920.013335
5.993333	1930.023793
5.953333	1940.022821
6.120000	1950.035370
5.706667	1960.035337
6.013333	1970.047468
5.960000	1980.045845
5.360000	1990.055007
5.446667	2000.049221
