ARQUIVO DE MEDIDA
Usuário: 
Amostra: 
Comentário: Medida de tensão sobre carga de 6,8 MOhm acoplada ao sensor de Si (igual à anterior)
Parâmetros: vmode 1 sen 25 acgain 0 tc 10 23.000000 4.000000
Magnitude (mV)	Comprimento de onda(nm)
0.366667	500.000000
0.353333	510.011571
0.266667	520.024111
0.340000	530.030641
0.380000	540.031045
0.413333	550.025207
0.633333	560.013012
0.640000	570.027276
0.720000	580.034908
0.806667	590.035792
1.006667	600.029811
1.266667	610.016850
1.673333	620.029609
2.040000	630.035106
2.686667	640.033226
3.293333	650.023850
3.726667	660.039581
4.353333	670.047531
5.233333	680.047583
6.393333	690.039619
7.126667	700.023520
8.186667	710.031757
9.553333	720.031570
10.546667	730.022839
11.900000	740.037949
13.166667	750.044222
14.613333	760.041537
16.033333	770.029776
17.713333	780.041203
19.126667	790.043254
21.206667	800.035809
23.240000	810.051040
25.773333	820.056470
28.480000	830.051979
31.593333	840.037447
34.773333	850.044914
38.760000	860.042031
43.073333	870.028676
47.493333	880.036787
52.440000	890.034114
57.040000	900.020535
61.706667	910.027880
66.460000	920.024003
71.060000	930.008778
77.553333	940.013929
85.900000	950.007412
94.686667	960.020874
102.086667	970.022344
104.526667	980.011697
100.026667	990.020462
89.453333	1000.016782
78.133333	1010.032105
67.540000	1020.034651
56.920000	1030.024293
47.493333	1040.032357
38.100000	1050.027180
30.380000	1060.040003
23.586667	1070.039247
18.366667	1080.024783
14.080000	1090.027721
10.906667	1100.016607
8.653333	1110.022462
6.740000	1120.013918
4.913333	1130.021903
3.646667	1140.015139
2.606667	1150.024460
1.900000	1160.018678
1.233333	1170.028530
0.906667	1180.022920
0.460000	1190.032491
0.360000	1200.026238
0.333333	1210.034705
0.346667	1220.026982
0.326667	1230.033513
0.386667	1240.023486
0.406667	1250.027241
0.393333	1260.014067
0.453333	1270.014196
0.326667	1280.027337
0.260000	1290.022929
0.400000	1300.031045
0.366667	1310.021231
0.340000	1320.023448
0.500000	1330.037393
0.386667	1340.032772
0.413333	1350.039375
0.473333	1360.027020
0.506667	1370.025382
0.193333	1380.034147
0.580000	1390.023299
0.680000	1400.022337
0.666667	1410.030941
0.286667	1420.019265
0.660000	1430.016627
0.446667	1440.022700
0.473333	1450.037154
0.666667	1460.030382
0.640000	1470.031449
0.906667	1480.040018
0.586667	1490.026667
0.840000	1500.020266
0.800000	1510.020474
0.860000	1520.026943
0.993333	1530.039325
1.100000	1540.028514
0.973333	1550.023046
1.226667	1560.022565
1.520000	1570.026713
1.500000	1580.035128
1.580000	1590.047446
1.586667	1600.034963
1.566667	1610.025790
1.773333	1620.019556
1.900000	1630.015887
1.946667	1640.014407
1.940000	1650.014737
1.973333	1660.016494
2.333333	1670.019293
2.533333	1680.022747
2.673333	1690.026464
2.620000	1700.030050
2.960000	1710.033109
3.120000	1720.035241
3.360000	1730.036043
3.453333	1740.035110
3.533333	1750.032034
3.780000	1760.026402
3.986667	1770.017802
4.286667	1780.005815
4.506667	1790.016891
4.533333	1800.023569
4.766667	1810.025420
5.153333	1820.022015
5.093333	1830.012918
5.640000	1840.024134
5.713333	1850.028606
5.606667	1860.025888
5.780000	1870.015534
5.873333	1880.023177
6.086667	1890.022095
6.233333	1900.011831
6.166667	1910.017731
6.266667	1920.013335
5.860000	1930.023793
6.053333	1940.022821
6.013333	1950.035370
6.353333	1960.035337
5.980000	1970.047468
5.606667	1980.045845
5.373333	1990.055007
5.280000	2000.049221
