ARQUIVO DE MEDIDA
Usuário: 
Amostra: 
Comentário: Medida de tensão sobre carga de 11.6 MOhm acoplada ao sensor de Si (grade 2 desabilitada)
Parâmetros: vmode 1 sen 26 acgain 0 tc 10 23.000000 4.000000
Magnitude (mV)	Comprimento de onda(nm)
0.333333	500.000000
0.283333	510.011571
0.383333	520.024111
0.333333	530.030641
0.400000	540.031045
0.450000	550.025207
0.666667	560.013012
0.783333	570.027276
0.666667	580.034908
1.016667	590.035792
1.283333	600.029811
1.500000	610.016850
1.850000	620.029609
2.100000	630.035106
2.716667	640.033226
3.416667	650.023850
4.183333	660.039581
5.216667	670.047531
5.783333	680.047583
6.916667	690.039619
7.833333	700.023520
9.083333	710.031757
10.100000	720.031570
11.283333	730.022839
12.583333	740.037949
14.250000	750.044222
15.766667	760.041537
17.450000	770.029776
18.883333	780.041203
20.700000	790.043254
23.033333	800.035809
25.400000	810.051040
28.450000	820.056470
30.833333	830.051979
34.083333	840.037447
37.633333	850.044914
42.000000	860.042031
46.716667	870.028676
51.916667	880.036787
57.700000	890.034114
62.800000	900.020535
67.316667	910.027880
72.050000	920.024003
77.800000	930.008778
85.266667	940.013929
93.966667	950.007412
103.083333	960.020874
110.616667	970.022344
112.316667	980.011697
107.700000	990.020462
97.633333	1000.016782
86.616667	1010.032105
74.916667	1020.034651
63.266667	1030.024293
52.066667	1040.032357
42.450000	1050.027180
33.300000	1060.040003
25.766667	1070.039247
19.883333	1080.024783
15.300000	1090.027721
12.183333	1100.016607
9.416667	1110.022462
7.216667	1120.013918
5.383333	1130.021903
4.066667	1140.015139
3.100000	1150.024460
2.066667	1160.018678
1.250000	1170.028530
0.683333	1180.022920
0.466667	1190.032491
0.366667	1200.026238
0.350000	1210.034705
0.316667	1220.026982
0.333333	1230.033513
0.266667	1240.023486
0.283333	1250.027241
0.266667	1260.014067
0.266667	1270.014196
0.333333	1280.027337
0.350000	1290.022929
0.300000	1300.031045
0.233333	1310.021231
0.300000	1320.023448
0.283333	1330.037393
0.450000	1340.032772
0.216667	1350.039375
0.383333	1360.027020
0.316667	1370.025382
0.450000	1380.034147
0.300000	1390.023299
0.533333	1400.022337
0.450000	1410.030941
0.616667	1420.019265
0.600000	1430.016627
0.583333	1440.022700
0.666667	1450.037154
0.550000	1460.030382
0.750000	1470.031449
0.783333	1480.040018
0.750000	1490.026667
0.900000	1500.020266
1.066667	1510.020474
0.850000	1520.026943
0.933333	1530.039325
1.266667	1540.028514
1.316667	1550.023046
1.516667	1560.022565
1.616667	1570.026713
1.550000	1580.035128
1.750000	1590.047446
1.666667	1600.034963
2.033333	1610.025790
1.916667	1620.019556
2.000000	1630.015887
2.366667	1640.014407
2.433333	1650.014737
2.566667	1660.016494
2.383333	1670.019293
2.516667	1680.022747
2.833333	1690.026464
3.016667	1700.030050
3.150000	1710.033109
3.550000	1720.035241
3.533333	1730.036043
3.633333	1740.035110
4.066667	1750.032034
4.133333	1760.026402
4.450000	1770.017802
4.883333	1780.005815
5.050000	1790.016891
5.216667	1800.023569
5.516667	1810.025420
5.533333	1820.022015
5.800000	1830.012918
6.033333	1840.024134
6.050000	1850.028606
6.383333	1860.025888
6.433333	1870.015534
6.566667	1880.023177
6.383333	1890.022095
6.633333	1900.011831
6.600000	1910.017731
6.550000	1920.013335
6.916667	1930.023793
6.650000	1940.022821
6.450000	1950.035370
6.550000	1960.035337
6.283333	1970.047468
6.033333	1980.045845
5.916667	1990.055007
6.016667	2000.049221
