ARQUIVO DE MEDIDA
Usuário: 
Amostra: 
Comentário: Medida de tensão sobre carga de 7,8 MOhm acoplada ao sensor de Si (grade 2 desabilitada)
Parâmetros: vmode 1 sen 26 acgain 0 tc 10 23.000000 4.000000
Magnitude (mV)	Comprimento de onda(nm)
0.383333	500.000000
0.350000	510.011571
0.350000	520.024111
0.450000	530.030641
0.316667	540.031045
0.466667	550.025207
0.450000	560.013012
0.483333	570.027276
0.950000	580.034908
1.116667	590.035792
1.233333	600.029811
1.216667	610.016850
1.733333	620.029609
2.216667	630.035106
2.566667	640.033226
3.200000	650.023850
3.983333	660.039581
4.750000	670.047531
5.600000	680.047583
6.416667	690.039619
7.516667	700.023520
8.483333	710.031757
9.766667	720.031570
11.100000	730.022839
12.433333	740.037949
13.466667	750.044222
15.016667	760.041537
16.583333	770.029776
17.966667	780.041203
20.033333	790.043254
21.600000	800.035809
24.233333	810.051040
26.466667	820.056470
29.466667	830.051979
32.500000	840.037447
36.450000	850.044914
40.483333	860.042031
44.850000	870.028676
49.550000	880.036787
54.650000	890.034114
59.250000	900.020535
63.900000	910.027880
68.483333	920.024003
73.600000	930.008778
80.266667	940.013929
87.700000	950.007412
96.183333	960.020874
103.933333	970.022344
106.516667	980.011697
101.916667	990.020462
92.150000	1000.016782
81.216667	1010.032105
70.500000	1020.034651
59.866667	1030.024293
49.633333	1040.032357
40.050000	1050.027180
31.483333	1060.040003
24.566667	1070.039247
18.800000	1080.024783
14.883333	1090.027721
11.300000	1100.016607
9.050000	1110.022462
6.833333	1120.013918
5.383333	1130.021903
3.966667	1140.015139
2.733333	1150.024460
2.000000	1160.018678
1.350000	1170.028530
0.800000	1180.022920
0.550000	1190.032491
0.416667	1200.026238
0.366667	1210.034705
0.400000	1220.026982
0.433333	1230.033513
0.416667	1240.023486
0.400000	1250.027241
0.450000	1260.014067
0.366667	1270.014196
0.183333	1280.027337
0.433333	1290.022929
0.416667	1300.031045
0.350000	1310.021231
0.500000	1320.023448
0.416667	1330.037393
0.500000	1340.032772
0.250000	1350.039375
0.416667	1360.027020
0.416667	1370.025382
0.533333	1380.034147
0.383333	1390.023299
0.600000	1400.022337
0.500000	1410.030941
0.366667	1420.019265
0.600000	1430.016627
0.683333	1440.022700
0.600000	1450.037154
0.783333	1460.030382
0.766667	1470.031449
0.616667	1480.040018
0.700000	1490.026667
0.783333	1500.020266
0.750000	1510.020474
0.633333	1520.026943
0.800000	1530.039325
0.866667	1540.028514
1.166667	1550.023046
1.300000	1560.022565
1.366667	1570.026713
1.416667	1580.035128
1.633333	1590.047446
1.766667	1600.034963
1.700000	1610.025790
1.866667	1620.019556
2.183333	1630.015887
1.916667	1640.014407
2.150000	1650.014737
2.433333	1660.016494
2.566667	1670.019293
2.416667	1680.022747
2.750000	1690.026464
2.800000	1700.030050
2.833333	1710.033109
3.000000	1720.035241
3.500000	1730.036043
3.666667	1740.035110
3.900000	1750.032034
3.966667	1760.026402
4.000000	1770.017802
4.533333	1780.005815
