ARQUIVO DE MEDIDA
Usuário: 
Amostra: 
Comentário: Medida de tensão sobre carga de 4,8 MOhm acoplada ao sensor de Si (grade 2 desabilitada)
Parâmetros: vmode 1 sen 26 acgain 0 tc 10 23.000000 4.000000
Magnitude (mV)	Comprimento de onda(nm)
0.266667	500.000000
0.333333	510.011571
0.333333	520.024111
0.350000	530.030641
0.250000	540.031045
0.366667	550.025207
0.450000	560.013012
0.550000	570.027276
0.700000	580.034908
0.816667	590.035792
0.950000	600.029811
1.316667	610.016850
1.650000	620.029609
2.050000	630.035106
2.400000	640.033226
3.016667	650.023850
3.633333	660.039581
4.350000	670.047531
4.933333	680.047583
5.816667	690.039619
6.550000	700.023520
7.666667	710.031757
8.716667	720.031570
9.833333	730.022839
10.933333	740.037949
12.183333	750.044222
13.383333	760.041537
14.516667	770.029776
16.033333	780.041203
17.633333	790.043254
19.383333	800.035809
21.483333	810.051040
23.466667	820.056470
25.866667	830.051979
28.500000	840.037447
32.066667	850.044914
35.733333	860.042031
39.533333	870.028676
43.466667	880.036787
47.933333	890.034114
52.650000	900.020535
56.950000	910.027880
60.983333	920.024003
65.383333	930.008778
71.183333	940.013929
77.933333	950.007412
85.600000	960.020874
91.733333	970.022344
93.616667	980.011697
89.733333	990.020462
81.050000	1000.016782
71.150000	1010.032105
61.700000	1020.034651
52.033333	1030.024293
43.416667	1040.032357
34.700000	1050.027180
27.200000	1060.040003
20.866667	1070.039247
16.333333	1080.024783
12.566667	1090.027721
9.750000	1100.016607
7.533333	1110.022462
5.783333	1120.013918
4.383333	1130.021903
3.300000	1140.015139
2.366667	1150.024460
1.666667	1160.018678
1.050000	1170.028530
0.733333	1180.022920
0.200000	1190.032491
0.166667	1200.026238
0.283333	1210.034705
0.333333	1220.026982
0.266667	1230.033513
0.250000	1240.023486
0.300000	1250.027241
0.250000	1260.014067
0.216667	1270.014196
0.366667	1280.027337
0.350000	1290.022929
0.316667	1300.031045
0.233333	1310.021231
0.316667	1320.023448
0.300000	1330.037393
0.400000	1340.032772
0.383333	1350.039375
0.333333	1360.027020
0.416667	1370.025382
0.433333	1380.034147
0.466667	1390.023299
0.550000	1400.022337
0.466667	1410.030941
0.300000	1420.019265
0.283333	1430.016627
0.616667	1440.022700
0.483333	1450.037154
0.650000	1460.030382
0.583333	1470.031449
0.550000	1480.040018
0.833333	1490.026667
0.783333	1500.020266
0.733333	1510.020474
0.716667	1520.026943
0.916667	1530.039325
0.900000	1540.028514
1.150000	1550.023046
1.216667	1560.022565
1.400000	1570.026713
1.433333	1580.035128
1.650000	1590.047446
1.566667	1600.034963
1.450000	1610.025790
1.966667	1620.019556
1.833333	1630.015887
2.033333	1640.014407
2.016667	1650.014737
2.100000	1660.016494
2.000000	1670.019293
2.150000	1680.022747
2.233333	1690.026464
2.333333	1700.030050
2.550000	1710.033109
2.733333	1720.035241
2.850000	1730.036043
3.066667	1740.035110
3.316667	1750.032034
3.383333	1760.026402
3.550000	1770.017802
3.783333	1780.005815
4.166667	1790.016891
4.416667	1800.023569
4.450000	1810.025420
4.483333	1820.022015
4.766667	1830.012918
4.966667	1840.024134
5.033333	1850.028606
5.366667	1860.025888
5.483333	1870.015534
5.416667	1880.023177
5.700000	1890.022095
5.483333	1900.011831
5.783333	1910.017731
5.700000	1920.013335
5.650000	1930.023793
5.633333	1940.022821
5.400000	1950.035370
5.383333	1960.035337
5.216667	1970.047468
5.266667	1980.045845
5.000000	1990.055007
4.833333	2000.049221
