ARQUIVO DE MEDIDA
Usuário: 
Amostra: 
Comentário: Medida de tensão sobre carga de 0,99MOhm acoplada ao sensor de Si (grade 2 desabilitada)
Parâmetros: vmode 1 sen 26 acgain 0 tc 10 23.000000 4.000000
Magnitude (mV)	Comprimento de onda(nm)
0.083333	500.000000
0.100000	510.011571
0.083333	520.024111
0.100000	530.030641
0.100000	540.031045
0.166667	550.025207
0.200000	560.013012
0.150000	570.027276
0.233333	580.034908
0.333333	590.035792
0.383333	600.029811
0.483333	610.016850
0.666667	620.029609
0.700000	630.035106
0.883333	640.033226
1.100000	650.023850
1.333333	660.039581
1.566667	670.047531
1.883333	680.047583
2.166667	690.039619
2.616667	700.023520
2.933333	710.031757
3.333333	720.031570
3.716667	730.022839
4.100000	740.037949
4.516667	750.044222
5.100000	760.041537
5.533333	770.029776
6.066667	780.041203
6.683333	790.043254
7.400000	800.035809
8.016667	810.051040
8.850000	820.056470
9.683333	830.051979
10.700000	840.037447
11.800000	850.044914
13.150000	860.042031
14.766667	870.028676
16.450000	880.036787
18.250000	890.034114
20.133333	900.020535
22.050000	910.027880
23.600000	920.024003
25.416667	930.008778
27.816667	940.013929
30.283333	950.007412
33.466667	960.020874
35.533333	970.022344
36.250000	980.011697
34.916667	990.020462
31.516667	1000.016782
27.866667	1010.032105
24.183333	1020.034651
20.550000	1030.024293
16.933333	1040.032357
13.633333	1050.027180
10.766667	1060.040003
8.250000	1070.039247
6.466667	1080.024783
4.966667	1090.027721
3.833333	1100.016607
3.100000	1110.022462
2.316667	1120.013918
1.766667	1130.021903
1.250000	1140.015139
0.950000	1150.024460
0.683333	1160.018678
0.466667	1170.028530
0.233333	1180.022920
0.150000	1190.032491
0.150000	1200.026238
0.133333	1210.034705
0.083333	1220.026982
0.100000	1230.033513
0.150000	1240.023486
0.083333	1250.027241
0.116667	1260.014067
0.100000	1270.014196
0.133333	1280.027337
0.116667	1290.022929
0.083333	1300.031045
0.133333	1310.021231
0.150000	1320.023448
0.133333	1330.037393
0.083333	1340.032772
0.083333	1350.039375
0.150000	1360.027020
0.150000	1370.025382
0.150000	1380.034147
0.183333	1390.023299
0.166667	1400.022337
0.166667	1410.030941
0.116667	1420.019265
0.150000	1430.016627
0.150000	1440.022700
0.183333	1450.037154
0.216667	1460.030382
0.266667	1470.031449
0.250000	1480.040018
0.283333	1490.026667
0.300000	1500.020266
0.250000	1510.020474
0.333333	1520.026943
0.350000	1530.039325
0.350000	1540.028514
0.416667	1550.023046
0.433333	1560.022565
0.533333	1570.026713
0.566667	1580.035128
0.533333	1590.047446
0.616667	1600.034963
0.650000	1610.025790
0.600000	1620.019556
0.633333	1630.015887
0.666667	1640.014407
0.783333	1650.014737
0.750000	1660.016494
0.816667	1670.019293
0.850000	1680.022747
0.900000	1690.026464
0.983333	1700.030050
0.966667	1710.033109
1.116667	1720.035241
1.133333	1730.036043
1.183333	1740.035110
1.233333	1750.032034
1.266667	1760.026402
1.383333	1770.017802
1.466667	1780.005815
1.500000	1790.016891
1.633333	1800.023569
1.700000	1810.025420
1.783333	1820.022015
1.766667	1830.012918
1.966667	1840.024134
2.033333	1850.028606
1.983333	1860.025888
2.083333	1870.015534
2.100000	1880.023177
2.166667	1890.022095
2.216667	1900.011831
2.283333	1910.017731
2.183333	1920.013335
2.200000	1930.023793
2.150000	1940.022821
2.083333	1950.035370
2.066667	1960.035337
2.083333	1970.047468
2.050000	1980.045845
2.000000	1990.055007
1.883333	2000.049221
