ARQUIVO DE MEDIDA
Usuário: 
Amostra: 
Comentário: Medida de tensão sobre carga de 3,33MOhm acoplada ao sensor de Si (grade 2 desabilitada)
Parâmetros: vmode 1 sen 26 acgain 0 tc 10 23.000000 4.000000
Magnitude (mV)	Comprimento de onda(nm)
0.200000	500.000000
0.233333	510.011571
0.200000	520.024111
0.316667	530.030641
0.283333	540.031045
0.300000	550.025207
0.466667	560.013012
0.566667	570.027276
0.616667	580.034908
0.666667	590.035792
0.933333	600.029811
1.100000	610.016850
1.266667	620.029609
1.683333	630.035106
2.033333	640.033226
2.383333	650.023850
3.016667	660.039581
3.466667	670.047531
4.133333	680.047583
5.000000	690.039619
5.783333	700.023520
6.616667	710.031757
7.466667	720.031570
8.266667	730.022839
9.183333	740.037949
10.150000	750.044222
11.233333	760.041537
12.250000	770.029776
13.450000	780.041203
14.883333	790.043254
16.183333	800.035809
17.933333	810.051040
19.766667	820.056470
21.883333	830.051979
24.166667	840.037447
26.883333	850.044914
30.100000	860.042031
33.433333	870.028676
37.016667	880.036787
40.616667	890.034114
44.266667	900.020535
47.783333	910.027880
51.350000	920.024003
55.616667	930.008778
60.483333	940.013929
66.383333	950.007412
72.633333	960.020874
78.083333	970.022344
79.816667	980.011697
76.683333	990.020462
69.533333	1000.016782
61.283333	1010.032105
53.050000	1020.034651
45.200000	1030.024293
37.333333	1040.032357
30.066667	1050.027180
23.650000	1060.040003
18.100000	1070.039247
14.066667	1080.024783
10.783333	1090.027721
8.483333	1100.016607
6.550000	1110.022462
5.050000	1120.013918
3.950000	1130.021903
2.850000	1140.015139
2.116667	1150.024460
1.516667	1160.018678
0.916667	1170.028530
0.566667	1180.022920
0.416667	1190.032491
0.316667	1200.026238
0.283333	1210.034705
0.166667	1220.026982
0.200000	1230.033513
0.133333	1240.023486
0.200000	1250.027241
0.166667	1260.014067
0.266667	1270.014196
0.216667	1280.027337
0.300000	1290.022929
0.216667	1300.031045
0.250000	1310.021231
0.266667	1320.023448
0.383333	1330.037393
0.350000	1340.032772
0.233333	1350.039375
0.250000	1360.027020
0.333333	1370.025382
0.283333	1380.034147
0.333333	1390.023299
0.266667	1400.022337
0.466667	1410.030941
0.483333	1420.019265
0.400000	1430.016627
0.400000	1440.022700
0.500000	1450.037154
0.433333	1460.030382
0.500000	1470.031449
0.750000	1480.040018
0.566667	1490.026667
0.500000	1500.020266
0.666667	1510.020474
0.700000	1520.026943
0.666667	1530.039325
0.700000	1540.028514
1.016667	1550.023046
1.050000	1560.022565
1.066667	1570.026713
1.150000	1580.035128
1.066667	1590.047446
1.216667	1600.034963
1.383333	1610.025790
1.483333	1620.019556
1.616667	1630.015887
1.583333	1640.014407
1.633333	1650.014737
1.716667	1660.016494
1.883333	1670.019293
1.966667	1680.022747
2.066667	1690.026464
2.133333	1700.030050
2.316667	1710.033109
2.366667	1720.035241
2.483333	1730.036043
2.633333	1740.035110
2.750000	1750.032034
3.100000	1760.026402
3.133333	1770.017802
3.350000	1780.005815
3.466667	1790.016891
3.616667	1800.023569
3.816667	1810.025420
4.116667	1820.022015
4.316667	1830.012918
4.333333	1840.024134
4.500000	1850.028606
4.550000	1860.025888
4.633333	1870.015534
4.766667	1880.023177
4.933333	1890.022095
4.816667	1900.011831
4.900000	1910.017731
4.883333	1920.013335
4.816667	1930.023793
4.800000	1940.022821
4.716667	1950.035370
4.766667	1960.035337
4.583333	1970.047468
4.500000	1980.045845
4.433333	1990.055007
4.166667	2000.049221
