ARQUIVO DE MEDIDA
Usuário: 
Amostra: 
Comentário: Medida de tensão sobre carga de 2,7MOhm acoplada ao sensor de Si (grade 2 desabilitada)
Parâmetros: vmode 1 sen 26 acgain 0 tc 10 23.000000 4.000000
Magnitude (mV)	Comprimento de onda(nm)
0.250000	500.000000
0.233333	510.011571
0.166667	520.024111
0.200000	530.030641
0.283333	540.031045
0.200000	550.025207
0.350000	560.013012
0.400000	570.027276
0.566667	580.034908
0.716667	590.035792
0.900000	600.029811
1.066667	610.016850
1.216667	620.029609
1.500000	630.035106
1.833333	640.033226
2.300000	650.023850
2.850000	660.039581
3.166667	670.047531
3.816667	680.047583
4.600000	690.039619
5.150000	700.023520
6.000000	710.031757
6.850000	720.031570
7.633333	730.022839
8.400000	740.037949
9.383333	750.044222
10.350000	760.041537
11.366667	770.029776
12.483333	780.041203
13.550000	790.043254
14.833333	800.035809
16.450000	810.051040
18.216667	820.056470
20.083333	830.051979
22.450000	840.037447
24.716667	850.044914
27.616667	860.042031
30.400000	870.028676
33.650000	880.036787
37.216667	890.034114
41.000000	900.020535
44.333333	910.027880
47.850000	920.024003
51.016667	930.008778
55.333333	940.013929
61.466667	950.007412
67.116667	960.020874
71.766667	970.022344
73.083333	980.011697
69.983333	990.020462
63.233333	1000.016782
55.966667	1010.032105
48.550000	1020.034651
41.366667	1030.024293
34.183333	1040.032357
27.566667	1050.027180
21.766667	1060.040003
16.866667	1070.039247
13.050000	1080.024783
10.150000	1090.027721
7.816667	1100.016607
6.050000	1110.022462
4.650000	1120.013918
3.566667	1130.021903
2.583333	1140.015139
1.966667	1150.024460
1.300000	1160.018678
0.733333	1170.028530
0.466667	1180.022920
0.250000	1190.032491
0.333333	1200.026238
0.216667	1210.034705
0.233333	1220.026982
0.266667	1230.033513
0.166667	1240.023486
0.233333	1250.027241
0.166667	1260.014067
0.133333	1270.014196
0.150000	1280.027337
0.200000	1290.022929
0.200000	1300.031045
0.250000	1310.021231
0.283333	1320.023448
0.333333	1330.037393
0.200000	1340.032772
0.183333	1350.039375
0.250000	1360.027020
0.200000	1370.025382
0.216667	1380.034147
0.333333	1390.023299
0.283333	1400.022337
0.300000	1410.030941
0.333333	1420.019265
0.366667	1430.016627
0.383333	1440.022700
0.500000	1450.037154
0.450000	1460.030382
0.433333	1470.031449
0.333333	1480.040018
0.600000	1490.026667
0.600000	1500.020266
0.650000	1510.020474
0.616667	1520.026943
0.716667	1530.039325
0.666667	1540.028514
0.750000	1550.023046
1.083333	1560.022565
0.933333	1570.026713
1.200000	1580.035128
1.016667	1590.047446
1.083333	1600.034963
1.150000	1610.025790
1.250000	1620.019556
1.333333	1630.015887
1.333333	1640.014407
1.383333	1650.014737
1.500000	1660.016494
1.616667	1670.019293
1.733333	1680.022747
1.783333	1690.026464
2.000000	1700.030050
1.966667	1710.033109
2.166667	1720.035241
2.350000	1730.036043
2.300000	1740.035110
2.633333	1750.032034
2.700000	1760.026402
2.916667	1770.017802
2.983333	1780.005815
3.200000	1790.016891
3.416667	1800.023569
3.550000	1810.025420
3.633333	1820.022015
3.733333	1830.012918
3.816667	1840.024134
3.833333	1850.028606
3.950000	1860.025888
4.083333	1870.015534
4.200000	1880.023177
4.433333	1890.022095
4.483333	1900.011831
4.366667	1910.017731
4.400000	1920.013335
4.383333	1930.023793
4.466667	1940.022821
4.466667	1950.035370
4.266667	1960.035337
4.100000	1970.047468
4.000000	1980.045845
3.883333	1990.055007
3.716667	2000.049221
