ARQUIVO DE MEDIDA
Usuário: 
Amostra: 
Comentário: Medida de tensão sobre carga de 0,5MOhm acoplada ao sensor de Si (grade 2 desabilitada)
Parâmetros: vmode 1 sen 26 acgain 0 tc 10 23.000000 4.000000
Magnitude (mV)	Comprimento de onda(nm)
0.100000	500.000000
0.100000	510.011571
0.116667	520.024111
0.100000	530.030641
0.116667	540.031045
0.083333	550.025207
0.216667	560.013012
0.133333	570.027276
0.133333	580.034908
0.150000	590.035792
0.250000	600.029811
0.283333	610.016850
0.333333	620.029609
0.366667	630.035106
0.516667	640.033226
0.600000	650.023850
0.666667	660.039581
0.866667	670.047531
0.983333	680.047583
1.200000	690.039619
1.383333	700.023520
1.566667	710.031757
1.816667	720.031570
2.016667	730.022839
2.266667	740.037949
2.500000	750.044222
2.733333	760.041537
3.033333	770.029776
3.300000	780.041203
3.650000	790.043254
4.000000	800.035809
4.366667	810.051040
4.883333	820.056470
5.433333	830.051979
5.966667	840.037447
6.583333	850.044914
7.333333	860.042031
8.200000	870.028676
9.033333	880.036787
10.000000	890.034114
10.900000	900.020535
11.833333	910.027880
12.633333	920.024003
13.533333	930.008778
14.733333	940.013929
16.233333	950.007412
17.766667	960.020874
19.100000	970.022344
19.400000	980.011697
18.616667	990.020462
16.883333	1000.016782
14.783333	1010.032105
12.833333	1020.034651
10.950000	1030.024293
9.033333	1040.032357
7.233333	1050.027180
5.650000	1060.040003
4.333333	1070.039247
3.366667	1080.024783
2.616667	1090.027721
2.000000	1100.016607
1.583333	1110.022462
1.200000	1120.013918
0.966667	1130.021903
0.733333	1140.015139
0.500000	1150.024460
0.366667	1160.018678
0.250000	1170.028530
0.150000	1180.022920
0.083333	1190.032491
0.116667	1200.026238
0.083333	1210.034705
0.083333	1220.026982
0.100000	1230.033513
0.100000	1240.023486
0.083333	1250.027241
0.083333	1260.014067
0.083333	1270.014196
0.083333	1280.027337
0.083333	1290.022929
0.116667	1300.031045
0.100000	1310.021231
0.083333	1320.023448
0.100000	1330.037393
0.100000	1340.032772
0.100000	1350.039375
0.133333	1360.027020
0.100000	1370.025382
0.100000	1380.034147
0.100000	1390.023299
0.133333	1400.022337
0.116667	1410.030941
0.133333	1420.019265
0.133333	1430.016627
0.133333	1440.022700
0.116667	1450.037154
0.116667	1460.030382
0.116667	1470.031449
0.150000	1480.040018
0.166667	1490.026667
0.183333	1500.020266
0.083333	1510.020474
0.166667	1520.026943
0.200000	1530.039325
0.183333	1540.028514
0.183333	1550.023046
0.233333	1560.022565
0.283333	1570.026713
0.266667	1580.035128
0.266667	1590.047446
0.333333	1600.034963
0.316667	1610.025790
0.333333	1620.019556
0.366667	1630.015887
0.383333	1640.014407
0.400000	1650.014737
0.416667	1660.016494
0.383333	1670.019293
0.450000	1680.022747
0.483333	1690.026464
0.500000	1700.030050
0.566667	1710.033109
0.600000	1720.035241
0.600000	1730.036043
0.633333	1740.035110
0.700000	1750.032034
0.666667	1760.026402
0.700000	1770.017802
0.800000	1780.005815
0.800000	1790.016891
0.833333	1800.023569
0.866667	1810.025420
0.916667	1820.022015
0.966667	1830.012918
1.066667	1840.024134
1.033333	1850.028606
1.033333	1860.025888
1.033333	1870.015534
1.066667	1880.023177
1.083333	1890.022095
1.166667	1900.011831
1.133333	1910.017731
1.166667	1920.013335
1.150000	1930.023793
1.133333	1940.022821
1.100000	1950.035370
1.066667	1960.035337
1.033333	1970.047468
1.016667	1980.045845
0.983333	1990.055007
0.933333	2000.049221
