ARQUIVO DE MEDIDA
Usuário: 
Amostra: 
Comentário: Medida de tensão sobre carga de 0,127MOhm acoplada ao sensor de Si (grade 2 desabilitada) - sensibilidade 10mV
Parâmetros: vmode 1 sen 21 acgain 0 tc 10 23.000000 4.000000
Magnitude (mV)	Comprimento de onda(nm)
0.098667	500.000000
0.131333	510.011571
0.102000	520.024111
0.116000	530.030641
0.115667	540.031045
0.082667	550.025207
0.106333	560.013012
0.078667	570.027276
0.104000	580.034908
0.114667	590.035792
0.121000	600.029811
0.124333	610.016850
0.138667	620.029609
0.154333	630.035106
0.136333	640.033226
0.160000	650.023850
0.239000	660.039581
0.249333	670.047531
0.285000	680.047583
0.314667	690.039619
0.379667	700.023520
0.441667	710.031757
0.489000	720.031570
0.574000	730.022839
0.663333	740.037949
0.685000	750.044222
0.755333	760.041537
0.794000	770.029776
0.898333	780.041203
0.999333	790.043254
1.071333	800.035809
1.174000	810.051040
1.308667	820.056470
1.477333	830.051979
1.597000	840.037447
1.763000	850.044914
1.947000	860.042031
2.161000	870.028676
2.425000	880.036787
2.664000	890.034114
2.891667	900.020535
3.106333	910.027880
3.305000	920.024003
3.517333	930.008778
3.860667	940.013929
4.223333	950.007412
4.667000	960.020874
4.985333	970.022344
5.083333	980.011697
4.836333	990.020462
4.389333	1000.016782
3.872000	1010.032105
3.392000	1020.034651
2.886667	1030.024293
2.426333	1040.032357
1.946333	1050.027180
1.525667	1060.040003
1.171000	1070.039247
0.914000	1080.024783
0.708667	1090.027721
0.552333	1100.016607
0.452000	1110.022462
0.348667	1120.013918
0.299000	1130.021903
0.167333	1140.015139
0.185667	1150.024460
0.114000	1160.018678
0.126667	1170.028530
0.126333	1180.022920
0.097333	1190.032491
0.118000	1200.026238
0.112000	1210.034705
0.108667	1220.026982
0.122667	1230.033513
0.118000	1240.023486
0.117333	1250.027241
0.128000	1260.014067
0.081667	1270.014196
0.121000	1280.027337
0.121667	1290.022929
0.101667	1300.031045
0.127333	1310.021231
0.087667	1320.023448
0.121333	1330.037393
0.115333	1340.032772
0.105333	1350.039375
0.118667	1360.027020
0.100000	1370.025382
0.118333	1380.034147
0.112667	1390.023299
0.117667	1400.022337
0.116333	1410.030941
0.099667	1420.019265
0.114000	1430.016627
0.117667	1440.022700
0.128667	1450.037154
0.138000	1460.030382
0.094000	1470.031449
0.129667	1480.040018
0.111000	1490.026667
0.103667	1500.020266
0.120000	1510.020474
0.089000	1520.026943
0.125000	1530.039325
0.109333	1540.028514
0.139333	1550.023046
0.147667	1560.022565
0.126000	1570.026713
0.147000	1580.035128
0.118333	1590.047446
0.112000	1600.034963
0.139000	1610.025790
0.136333	1620.019556
0.162667	1630.015887
0.149000	1640.014407
0.132667	1650.014737
0.140333	1660.016494
0.160667	1670.019293
0.156667	1680.022747
0.154000	1690.026464
0.150667	1700.030050
0.155000	1710.033109
0.180333	1720.035241
0.163333	1730.036043
0.208000	1740.035110
0.172333	1750.032034
0.203000	1760.026402
0.214333	1770.017802
0.200000	1780.005815
0.222333	1790.016891
0.259000	1800.023569
0.254667	1810.025420
0.266000	1820.022015
0.283333	1830.012918
0.299000	1840.024134
0.274333	1850.028606
0.260667	1860.025888
0.339333	1870.015534
0.351000	1880.023177
0.334333	1890.022095
0.275667	1900.011831
0.304333	1910.017731
0.322667	1920.013335
0.336333	1930.023793
0.327667	1940.022821
0.263000	1950.035370
0.300000	1960.035337
0.308667	1970.047468
0.318667	1980.045845
0.291000	1990.055007
0.299333	2000.049221
