ARQUIVO DE MEDIDA
Usuário: 
Amostra: 
Comentário: Medida de tensão sobre carga de 0,051MOhm acoplada ao sensor de Si (grade 2 desabilitada) - sensibilidade 5mV
Parâmetros: vmode 1 sen 20 acgain 0 tc 10 23.000000 4.000000
Magnitude (mV)	Comprimento de onda(nm)
0.112167	500.000000
0.101500	510.011571
0.105833	520.024111
0.120500	530.030641
0.096167	540.031045
0.110167	550.025207
0.095500	560.013012
0.100833	570.027276
0.098667	580.034908
0.095333	590.035792
0.099667	600.029811
0.111333	610.016850
0.096667	620.029609
0.103167	630.035106
0.079167	640.033226
0.095000	650.023850
0.110667	660.039581
0.140667	670.047531
0.122667	680.047583
0.102333	690.039619
0.110500	700.023520
0.137333	710.031757
0.174000	720.031570
0.177167	730.022839
0.165833	740.037949
0.219167	750.044222
0.282000	760.041537
0.286833	770.029776
0.292167	780.041203
0.314333	790.043254
0.346500	800.035809
0.384167	810.051040
0.388333	820.056470
0.438167	830.051979
0.528333	840.037447
0.557000	850.044914
0.624000	860.042031
0.660667	870.028676
0.767167	880.036787
0.794333	890.034114
0.901000	900.020535
0.968000	910.027880
1.008500	920.024003
1.094000	930.008778
1.225833	940.013929
1.348667	950.007412
1.480500	960.020874
1.526667	970.022344
1.613333	980.011697
1.574167	990.020462
1.391000	1000.016782
1.222167	1010.032105
1.041500	1020.034651
0.901833	1030.024293
0.736667	1040.032357
0.621333	1050.027180
0.461833	1060.040003
0.347500	1070.039247
0.269833	1080.024783
0.224667	1090.027721
0.211167	1100.016607
0.143333	1110.022462
0.124833	1120.013918
0.092000	1130.021903
0.102833	1140.015139
0.123667	1150.024460
0.094500	1160.018678
0.106333	1170.028530
0.096500	1180.022920
0.081333	1190.032491
0.097833	1200.026238
0.079000	1210.034705
0.110333	1220.026982
0.088667	1230.033513
0.096000	1240.023486
0.101333	1250.027241
0.082500	1260.014067
0.103667	1270.014196
0.099500	1280.027337
0.079500	1290.022929
0.087500	1300.031045
0.098500	1310.021231
0.078333	1320.023448
0.106167	1330.037393
0.101167	1340.032772
0.107167	1350.039375
0.099167	1360.027020
0.102500	1370.025382
0.095000	1380.034147
0.084167	1390.023299
0.095833	1400.022337
0.110000	1410.030941
0.088500	1420.019265
0.105333	1430.016627
0.095667	1440.022700
0.084333	1450.037154
0.096500	1460.030382
0.101167	1470.031449
0.097333	1480.040018
0.079833	1490.026667
0.108167	1500.020266
0.110667	1510.020474
0.079667	1520.026943
0.098833	1530.039325
0.101167	1540.028514
0.087333	1550.023046
0.093500	1560.022565
0.110667	1570.026713
0.081500	1580.035128
0.096500	1590.047446
0.111500	1600.034963
0.081667	1610.025790
0.100167	1620.019556
0.079833	1630.015887
0.088667	1640.014407
0.106333	1650.014737
0.088333	1660.016494
0.093667	1670.019293
0.087333	1680.022747
0.079000	1690.026464
0.088333	1700.030050
0.091000	1710.033109
0.090000	1720.035241
0.108000	1730.036043
0.083333	1740.035110
0.117000	1750.032034
0.129667	1760.026402
0.094000	1770.017802
0.129500	1780.005815
0.089167	1790.016891
0.096500	1800.023569
0.121667	1810.025420
0.092500	1820.022015
0.118333	1830.012918
0.107333	1840.024134
0.121333	1850.028606
0.120667	1860.025888
0.121333	1870.015534
0.135500	1880.023177
0.115833	1890.022095
0.119167	1900.011831
0.126667	1910.017731
0.101333	1920.013335
0.119500	1930.023793
0.115667	1940.022821
0.093167	1950.035370
0.139833	1960.035337
0.154667	1970.047468
0.109667	1980.045845
0.110000	1990.055007
0.131500	2000.049221
