ARQUIVO DE MEDIDA
Usuário: ivan
Amostra: Nenhuma
Comentário: Teste #4: a intenção agora é escolher os parâmetros das medidas de modo a evidentciar consistenttemente a flutuação na foto-tensão que estamos obsereando.
Parâmetros: vmode 1 sen 27 acgain 0 tc 10 27.000000 4.300000
Magnitude (mV)	Comprimento de onda(nm)
0.200000	100.000000
0.200000	110.006496
0.200000	119.995843
0.200000	129.983848
0.300000	139.970400
0.300000	149.955388
0.333333	159.938698
0.300000	169.953713
0.200000	179.966815
0.200000	189.977892
0.233333	199.986831
0.200000	209.993518
0.200000	219.997843
0.200000	229.999691
0.300000	239.998951
0.300000	249.995510
0.300000	259.989255
0.300000	269.980075
0.300000	279.967855
0.300000	289.952485
0.300000	299.967229
0.300000	309.978574
0.200000	319.986407
0.200000	329.990614
0.200000	339.991083
0.266667	349.987699
0.300000	359.980351
0.400000	369.968923
0.300000	379.953305
0.400000	389.966640
0.200000	399.975528
0.200000	409.979855
0.200000	419.979505
0.200000	429.974365
0.366667	439.964320
0.366667	449.949258
0.400000	459.962211
0.300000	469.969883
0.200000	479.972159
0.200000	489.968924
0.200000	499.960063
0.200000	509.945462
0.400000	519.958041
0.400000	529.964611
0.300000	539.965056
0.400000	549.959260
0.233333	559.947107
0.100000	569.961414
0.100000	579.969090
0.200000	589.970019
0.300000	599.964084
0.366667	609.951169
0.300000	619.963975
0.300000	629.969520
0.566667	639.967689
0.700000	649.958362
0.700000	659.974143
0.933333	669.982145
1.300000	679.982249
1.600000	689.974337
1.800000	699.958293
2.100000	709.966584
2.300000	719.966452
2.400000	729.957777
2.600000	739.972944
2.900000	749.979275
3.000000	759.976649
3.200000	769.964947
3.500000	779.976434
3.766667	789.978547
4.000000	799.971163
4.300000	809.986456
4.600000	819.991950
4.900000	829.987524
5.200000	839.973057
5.600000	849.980590
6.000000	859.977774
6.400000	869.964487
6.700000	879.972667
7.100000	889.970064
7.600000	899.956554
7.700000	909.963971
8.000000	919.960166
8.300000	929.945014
8.700000	939.950239
9.300000	949.943797
9.900000	959.957334
10.300000	969.958880
10.300000	979.948311
