ARQUIVO DE MEDIDA
Usuário: ivan
Amostra: Nenhuma
Comentário: Teste #6: idem à medida anterior, para tentar evidenciar a flutuação na foto-tensão.
Parâmetros: vmode 1 sen 27 acgain 0 tc 10 27.000000 4.300000
Magnitude (mV)	Comprimento de onda(nm)
0.200000	100.000000
0.200000	110.006496
0.166667	119.995843
0.200000	129.983848
0.200000	139.970400
0.366667	149.955388
0.400000	159.938698
0.333333	169.953713
0.333333	179.966815
0.200000	189.977892
0.200000	199.986831
0.200000	209.993518
0.300000	219.997843
0.300000	229.999691
0.300000	239.998951
0.200000	249.995510
0.200000	259.989255
0.200000	269.980075
0.300000	279.967855
0.300000	289.952485
0.300000	299.967229
0.400000	309.978574
0.200000	319.986407
0.200000	329.990614
0.200000	339.991083
0.200000	349.987699
0.200000	359.980351
0.300000	369.968923
0.300000	379.953305
0.300000	389.966640
0.333333	399.975528
0.200000	409.979855
0.200000	419.979505
0.200000	429.974365
0.233333	439.964320
0.400000	449.949258
0.300000	459.962211
0.300000	469.969883
0.300000	479.972159
0.200000	489.968924
0.200000	499.960063
0.200000	509.945462
0.300000	519.958041
0.400000	529.964611
0.300000	539.965056
0.300000	549.959260
0.466667	559.947107
0.366667	569.961414
0.300000	579.969090
0.333333	589.970019
0.200000	599.964084
0.133333	609.951169
0.200000	619.963975
0.500000	629.969520
0.800000	639.967689
1.000000	649.958362
1.100000	659.974143
1.200000	669.982145
1.100000	679.982249
1.100000	689.974337
1.300000	699.958293
1.700000	709.966584
2.033333	719.966452
2.400000	729.957777
2.633333	739.972944
2.800000	749.979275
3.000000	759.976649
3.000000	769.964947
3.000000	779.976434
3.233333	789.978547
3.500000	799.971163
4.000000	809.986456
4.500000	819.991950
4.900000	829.987524
5.266667	839.973057
5.500000	849.980590
5.666667	859.977774
5.933333	869.964487
6.400000	879.972667
6.700000	889.970064
7.166667	899.956554
7.566667	909.963971
7.900000	919.960166
8.300000	929.945014
8.800000	939.950239
9.400000	949.943797
9.900000	959.957334
10.166667	969.958880
9.966667	979.948311
