ARQUIVO DE MEDIDA
Usuário: ivan
Amostra: Nenhuma
Comentário: Teste #8: idem à medida anterior, para tentar evidenciar a flutuação na foto-tensão.
Parâmetros: vmode 1 sen 27 acgain 0 tc 10 27.000000 4.300000
Magnitude (mV)	Comprimento de onda(nm)
0.100000	100.000000
0.100000	110.006496
0.200000	119.995843
0.200000	129.983848
0.200000	139.970400
0.200000	149.955388
0.200000	159.938698
0.200000	169.953713
0.200000	179.966815
0.200000	189.977892
0.200000	199.986831
0.300000	209.993518
0.300000	219.997843
0.300000	229.999691
0.300000	239.998951
0.300000	249.995510
0.300000	259.989255
0.300000	269.980075
0.300000	279.967855
0.300000	289.952485
0.300000	299.967229
0.300000	309.978574
0.300000	319.986407
0.300000	329.990614
0.200000	339.991083
0.200000	349.987699
0.200000	359.980351
0.200000	369.968923
0.200000	379.953305
0.300000	389.966640
0.300000	399.975528
0.200000	409.979855
0.200000	419.979505
0.200000	429.974365
0.233333	439.964320
0.300000	449.949258
0.300000	459.962211
0.300000	469.969883
0.300000	479.972159
0.200000	489.968924
0.200000	499.960063
0.200000	509.945462
0.300000	519.958041
0.400000	529.964611
0.333333	539.965056
0.300000	549.959260
0.166667	559.947107
0.100000	569.961414
0.100000	579.969090
0.200000	589.970019
0.300000	599.964084
0.500000	609.951169
0.600000	619.963975
0.600000	629.969520
0.700000	639.967689
0.900000	649.958362
0.900000	659.974143
1.000000	669.982145
1.000000	679.982249
1.200000	689.974337
1.333333	699.958293
1.400000	709.966584
1.600000	719.966452
1.900000	729.957777
2.066667	739.972944
2.400000	749.979275
2.800000	759.976649
3.100000	769.964947
3.400000	779.976434
3.533333	789.978547
3.600000	799.971163
3.600000	809.986456
3.900000	819.991950
4.400000	829.987524
4.900000	839.973057
5.400000	849.980590
5.800000	859.977774
6.200000	869.964487
6.333333	879.972667
6.700000	889.970064
7.000000	899.956554
7.333333	909.963971
7.700000	919.960166
8.200000	929.945014
8.500000	939.950239
9.233333	949.943797
9.900000	959.957334
10.300000	969.958880
10.300000	979.948311
